# FILE      =  Hot.hot
# NOTEA     = GPIOLabs 8"horn Pi#7
# NOTEB     = Spectral Integration AIRSPY-mini Test
# OBSERVER  = Science Aficionado
# DEVICE    = airspy,bias=0
# DATADIR   = ../data/
# SITE      = GPIOLabs 8"horn Pi#7
# CITY      = Green Bank
# REGION    = West Virginia
# COUNTRY   = US
# TELTYPE   = Bubble Wrap  Horn
# FRAME     = TOPO
# GAIN1     = 17.0
# GAIN2     = 0.0
# GAIN3     = 0.0
# GAIN4     = 0.0
# Count     = 485621
# REFFREQ   = 1420405751.768
# OBSFREQ   = 1421500000.0
# OBSBW     = 6000000.0
# Duration  = 157.285896
# DeltaX    = 5859.375
# TSYS      = 200.0
# TRX       = 100.0
# TRMS      = 2.0
# TINT      = 1.0
# KPERC     = 100.0
# GAINFACT  = 1.0
# BUNIT     = Counts
# NCHAN     = 2048
# NSPEC     = 1
# NTIME     = 0
# NSAMPLES  = 0
# EPEAK     = 4.10875183718
# ERMS      = 0.995973393526
# EMJD      = 58568.808999981004 
# REFCHAN   = 1024.0
# REFSAMPL  = 256.0
# NAVE      = 485621
# NMEDIAN   = 1024
# Fft_rate  = 5000
# UTC       = 2021-12-08 21:14:02.148657
# SECONDS   =       0.0000000000 
# LST       = 01:23:11.769
# AZ        = 0.0
# EL        = -45.0
# TELLON    = -79:50:22.920
# TELLAT    = +38:25:59.160
# TELALT    = 0.0
# RA        = 20:52:00.120
# DEC       = +83:16:52.600
# GALLON    = 116:35:32.10
# GALLAT    = +23:36:49.40
# ALT_SUN   = +09:23:27.6
# AZ_SUN    = +230:51:15.5
# ETAA      = 0.8
# ETAB      = 0.99
# POLANGLE  = 0.0
# TELSIZEAM = 1.0
# TELSIZEBM = 1.0
# AST_VERS  = 5.0.1
# N  Frequency  Intensity 
#       (Hz)    (Counts) 
0000 1418500000 126.4725
0001 1418502929 134.1242
0002 1418505859 126.4725
0003 1418508789 147.2829
0004 1418511718 92.7622
0005 1418514648 198.6024
0006 1418517578 202.9651
0007 1418520507 112.8981
0008 1418523437 275.6472
0009 1418526367 176.1129
0010 1418529296 138.9091
0011 1418532226 267.2193
0012 1418535156 138.7307
0013 1418538085 157.3445
0014 1418541015 207.8033
0015 1418543945 131.1870
0016 1418546875 165.3776
0017 1418549804 169.3230
0018 1418552734 143.0151
0019 1418555664 164.1144
0020 1418558593 162.7178
0021 1418561523 161.9790
0022 1418564453 171.9982
0023 1418567382 179.6527
0024 1418570312 192.3678
0025 1418573242 199.0894
0026 1418576171 214.7406
0027 1418579101 260.1015
0028 1418582031 250.5958
0029 1418584960 368.0074
0030 1418587890 920.7663
0031 1418590820 468.0335
0032 1418593750 363.2477
0033 1418596679 407.9558
0034 1418599609 315.8528
0035 1418602539 326.0538
0036 1418605468 341.9451
0037 1418608398 355.4712
0038 1418611328 375.5051
0039 1418614257 394.7722
0040 1418617187 415.3622
0041 1418620117 438.4049
0042 1418623046 461.8802
0043 1418625976 488.5021
0044 1418628906 514.7508
0045 1418631835 543.5044
0046 1418634765 574.8102
0047 1418637695 606.2695
0048 1418640625 641.8629
0049 1418643554 680.1008
0050 1418646484 714.4052
0051 1418649414 758.8162
0052 1418652343 802.5584
0053 1418655273 846.1292
0054 1418658203 902.4415
0055 1418661132 954.8182
0056 1418664062 1002.5759
0057 1418666992 1080.5656
0058 1418669921 1134.8188
0059 1418672851 1202.9641
0060 1418675781 1369.3088
0061 1418678710 1392.0063
0062 1418681640 1633.7521
0063 1418684570 1941.3656
0064 1418687500 1638.3933
0065 1418690429 1659.6471
0066 1418693359 1756.9296
0067 1418696289 1848.8270
0068 1418699218 1951.0371
0069 1418702148 2070.6116
0070 1418705078 2183.8010
0071 1418708007 2303.3552
0072 1418710937 2427.6580
0073 1418713867 2565.5010
0074 1418716796 2713.2427
0075 1418719726 2858.5068
0076 1418722656 3025.9739
0077 1418725585 3190.9297
0078 1418728515 3359.5208
0079 1418731445 3543.3379
0080 1418734375 3742.1943
0081 1418737304 3939.9961
0082 1418740234 4154.8599
0083 1418743164 4379.2080
0084 1418746093 4615.6704
0085 1418749023 4860.8237
0086 1418751953 5109.3818
0087 1418754882 5393.8999
0088 1418757812 5666.7036
0089 1418760742 5949.0620
0090 1418763671 6303.6880
0091 1418766601 6600.7471
0092 1418769531 6979.4116
0093 1418772460 7419.6416
0094 1418775390 7672.6509
0095 1418778320 8041.8242
0096 1418781250 8442.8096
0097 1418784179 8854.8750
0098 1418787109 9301.0332
0099 1418790039 9745.5996
0100 1418792968 10241.8047
0101 1418795898 10726.4600
0102 1418798828 11254.3564
0103 1418801757 11784.2930
0104 1418804687 12334.2275
0105 1418807617 12944.4141
0106 1418810546 13555.4414
0107 1418813476 14196.9834
0108 1418816406 14895.5342
0109 1418819335 15539.8496
0110 1418822265 16280.0781
0111 1418825195 17063.2812
0112 1418828125 17858.5449
0113 1418831054 18776.2344
0114 1418833984 19619.7500
0115 1418836914 20390.7012
0116 1418839843 21179.3242
0117 1418842773 22074.2930
0118 1418845703 23010.1094
0119 1418848632 23977.5000
0120 1418851562 25013.3691
0121 1418854492 26133.3496
0122 1418857421 27243.4961
0123 1418860351 28429.5547
0124 1418863281 29597.8086
0125 1418866210 30794.4727
0126 1418869140 32122.4434
0127 1418872070 33415.9805
0128 1418875000 34819.9062
0129 1418877929 36260.9141
0130 1418880859 37546.5664
0131 1418883789 39445.4727
0132 1418886718 40926.7305
0133 1418889648 42202.3477
0134 1418892578 43846.9375
0135 1418895507 45588.6836
0136 1418898437 47203.8516
0137 1418901367 49058.4727
0138 1418904296 50822.8320
0139 1418907226 52991.6992
0140 1418910156 54877.8750
0141 1418913085 57012.8672
0142 1418916015 59074.2383
0143 1418918945 60977.8359
0144 1418921875 63304.9453
0145 1418924804 65564.9922
0146 1418927734 68070.3828
0147 1418930664 70825.7344
0148 1418933593 72788.7109
0149 1418936523 75279.3047
0150 1418939453 78153.1406
0151 1418942382 80708.9609
0152 1418945312 83681.4453
0153 1418948242 86361.9062
0154 1418951171 89044.6250
0155 1418954101 92072.0469
0156 1418957031 94909.3750
0157 1418959960 98139.5781
0158 1418962890 101383.6797
0159 1418965820 104429.0547
0160 1418968750 107732.4375
0161 1418971679 110899.3125
0162 1418974609 114472.7422
0163 1418977539 117917.1016
0164 1418980468 121729.9844
0165 1418983398 125624.2188
0166 1418986328 129103.8594
0167 1418989257 132967.9062
0168 1418992187 136999.2656
0169 1418995117 140579.8438
0170 1418998046 145331.8438
0171 1419000976 148844.0000
0172 1419003906 153268.9844
0173 1419006835 158607.9062
0174 1419009765 161794.0938
0175 1419012695 166288.3906
0176 1419015625 170420.2031
0177 1419018554 174927.0625
0178 1419021484 179608.6562
0179 1419024414 184378.3125
0180 1419027343 189761.9844
0181 1419030273 194577.4375
0182 1419033203 199001.0312
0183 1419036132 204514.7969
0184 1419039062 209211.9844
0185 1419041992 214182.5000
0186 1419044921 219167.1250
0187 1419047851 224376.7188
0188 1419050781 229837.5938
0189 1419053710 234853.1094
0190 1419056640 240525.4375
0191 1419059570 246528.8906
0192 1419062500 251057.6875
0193 1419065429 257947.3438
0194 1419068359 263947.0312
0195 1419071289 268336.3125
0196 1419074218 274338.8438
0197 1419077148 279337.4062
0198 1419080078 285374.6250
0199 1419083007 291485.0000
0200 1419085937 297284.1562
0201 1419088867 303078.0312
0202 1419091796 309375.0625
0203 1419094726 314820.2188
0204 1419097656 320781.5938
0205 1419100585 326203.9375
0206 1419103515 332687.2812
0207 1419106445 339164.6562
0208 1419109375 344790.1250
0209 1419112304 351623.8750
0210 1419115234 356992.3125
0211 1419118164 363867.9062
0212 1419121093 369438.2812
0213 1419124023 375349.3125
0214 1419126953 384718.2812
0215 1419129882 389590.7500
0216 1419132812 393392.3750
0217 1419135742 399969.9062
0218 1419138671 405969.3438
0219 1419141601 412142.1250
0220 1419144531 418222.5000
0221 1419147460 423226.4062
0222 1419150390 429893.3125
0223 1419153320 435943.8125
0224 1419156250 442160.3125
0225 1419159179 448481.7188
0226 1419162109 453351.4062
0227 1419165039 460253.8438
0228 1419167968 466261.7500
0229 1419170898 471876.0312
0230 1419173828 478028.2188
0231 1419176757 483562.8438
0232 1419179687 490152.2500
0233 1419182617 494949.6250
0234 1419185546 500049.0938
0235 1419188476 507391.9375
0236 1419191406 512341.4375
0237 1419194335 515372.7500
0238 1419197265 521837.2812
0239 1419200195 527462.7500
0240 1419203125 532523.7500
0241 1419206054 537694.1875
0242 1419208984 543673.9375
0243 1419211914 549369.3750
0244 1419214843 553842.4375
0245 1419217773 558917.4375
0246 1419220703 563666.5625
0247 1419223632 567987.4375
0248 1419226562 573507.2500
0249 1419229492 576712.1250
0250 1419232421 582624.6250
0251 1419235351 587926.6875
0252 1419238281 591562.0625
0253 1419241210 597785.1250
0254 1419244140 601388.9375
0255 1419247070 608758.8125
0256 1419250000 617623.4375
0257 1419252929 612845.1250
0258 1419255859 617220.0625
0259 1419258789 621584.3750
0260 1419261718 625479.3125
0261 1419264648 630545.3750
0262 1419267578 633342.2500
0263 1419270507 636227.5625
0264 1419273437 640491.1875
0265 1419276367 644184.9375
0266 1419279296 650168.0000
0267 1419282226 652234.9375
0268 1419285156 653769.3750
0269 1419288085 657519.2500
0270 1419291015 661691.0625
0271 1419293945 664894.9375
0272 1419296875 667686.0625
0273 1419299804 672996.2500
0274 1419302734 674429.0625
0275 1419305664 676127.8750
0276 1419308593 682123.5000
0277 1419311523 683520.9375
0278 1419314453 683756.8750
0279 1419317382 686902.2500
0280 1419320312 689488.5000
0281 1419323242 692337.1875
0282 1419326171 695082.6875
0283 1419329101 697103.6250
0284 1419332031 701238.8125
0285 1419334960 701882.1875
0286 1419337890 703931.0625
0287 1419340820 707106.5000
0288 1419343750 706898.6875
0289 1419346679 708799.3750
0290 1419349609 711834.6250
0291 1419352539 713275.3750
0292 1419355468 716430.5000
0293 1419358398 716502.9375
0294 1419361328 718526.3750
0295 1419364257 721132.8750
0296 1419367187 721864.3750
0297 1419370117 731489.0000
0298 1419373046 726988.1875
0299 1419375976 726108.6875
0300 1419378906 728652.3125
0301 1419381835 728134.8750
0302 1419384765 731848.1875
0303 1419387695 730619.0625
0304 1419390625 732696.5000
0305 1419393554 734343.8750
0306 1419396484 735575.5625
0307 1419399414 736963.3750
0308 1419402343 737793.7500
0309 1419405273 736157.3750
0310 1419408203 738317.6250
0311 1419411132 738409.8750
0312 1419414062 741345.6250
0313 1419416992 741178.5000
0314 1419419921 741310.2500
0315 1419422851 744508.0625
0316 1419425781 742374.4375
0317 1419428710 744074.6875
0318 1419431640 746317.6250
0319 1419434570 744445.6875
0320 1419437500 745789.1250
0321 1419440429 745624.5000
0322 1419443359 744893.8750
0323 1419446289 746483.8750
0324 1419449218 747139.2500
0325 1419452148 746522.4375
0326 1419455078 747779.0625
0327 1419458007 747041.4375
0328 1419460937 749359.3750
0329 1419463867 750106.9375
0330 1419466796 749249.1875
0331 1419469726 748671.6875
0332 1419472656 749091.3125
0333 1419475585 749021.0625
0334 1419478515 748889.1875
0335 1419481445 747930.5000
0336 1419484375 749857.9375
0337 1419487304 750175.7500
0338 1419490234 749894.1250
0339 1419493164 751915.1875
0340 1419496093 749342.0625
0341 1419499023 749325.0000
0342 1419501953 749708.2500
0343 1419504882 749776.0625
0344 1419507812 749101.6250
0345 1419510742 749677.3750
0346 1419513671 750946.6875
0347 1419516601 749933.5000
0348 1419519531 748755.0000
0349 1419522460 748300.1875
0350 1419525390 747838.8125
0351 1419528320 748749.2500
0352 1419531250 747653.2500
0353 1419534179 749590.8750
0354 1419537109 750282.1875
0355 1419540039 748299.3750
0356 1419542968 749322.8750
0357 1419545898 751552.6875
0358 1419548828 748413.4375
0359 1419551757 753340.6875
0360 1419554687 750074.4375
0361 1419557617 746500.3125
0362 1419560546 748180.4375
0363 1419563476 746059.9375
0364 1419566406 745244.1875
0365 1419569335 746252.8750
0366 1419572265 746540.0625
0367 1419575195 745419.1875
0368 1419578125 746869.5000
0369 1419581054 745648.6250
0370 1419583984 747969.6875
0371 1419586914 746537.8750
0372 1419589843 746306.0625
0373 1419592773 744139.8750
0374 1419595703 743846.8125
0375 1419598632 743621.8125
0376 1419601562 743423.6250
0377 1419604492 743234.6875
0378 1419607421 742490.8750
0379 1419610351 743107.6250
0380 1419613281 743917.3750
0381 1419616210 741971.1875
0382 1419619140 740684.7500
0383 1419622070 741488.3750
0384 1419625000 740744.1875
0385 1419627929 741250.9375
0386 1419630859 740920.4375
0387 1419633789 738828.8125
0388 1419636718 739662.8750
0389 1419639648 738625.7500
0390 1419642578 739729.9375
0391 1419645507 739534.4375
0392 1419648437 737807.4375
0393 1419651367 739398.9375
0394 1419654296 736881.6875
0395 1419657226 738739.8125
0396 1419660156 739045.9375
0397 1419663085 736971.0625
0398 1419666015 738898.3125
0399 1419668945 736306.1250
0400 1419671875 737682.1875
0401 1419674804 739822.1875
0402 1419677734 735715.3750
0403 1419680664 735235.6875
0404 1419683593 735253.3750
0405 1419686523 733780.3125
0406 1419689453 733799.6250
0407 1419692382 732876.6250
0408 1419695312 732397.1875
0409 1419698242 733758.7500
0410 1419701171 731850.1875
0411 1419704101 735105.1250
0412 1419707031 733620.7500
0413 1419709960 732077.5625
0414 1419712890 732182.5000
0415 1419715820 730699.1875
0416 1419718750 730138.6875
0417 1419721679 730643.3125
0418 1419724609 730909.1875
0419 1419727539 734219.8125
0420 1419730468 731451.6875
0421 1419733398 734456.3750
0422 1419736328 732786.3125
0423 1419739257 728827.1250
0424 1419742187 728528.3125
0425 1419745117 728096.6875
0426 1419748046 728230.8750
0427 1419750976 728894.9375
0428 1419753906 728034.9375
0429 1419756835 730270.3750
0430 1419759765 727727.6875
0431 1419762695 727776.6250
0432 1419765625 729139.8750
0433 1419768554 726789.3125
0434 1419771484 726492.4375
0435 1419774414 727405.8125
0436 1419777343 727844.5000
0437 1419780273 728098.3125
0438 1419783203 725726.5000
0439 1419786132 725037.0625
0440 1419789062 724551.9375
0441 1419791992 726961.8750
0442 1419794921 728593.8125
0443 1419797851 727434.0625
0444 1419800781 725403.6250
0445 1419803710 727470.4375
0446 1419806640 725073.5000
0447 1419809570 725273.5000
0448 1419812500 725524.7500
0449 1419815429 724684.2500
0450 1419818359 725517.0625
0451 1419821289 723907.7500
0452 1419824218 724587.8750
0453 1419827148 724281.5000
0454 1419830078 722371.1875
0455 1419833007 725664.7500
0456 1419835937 724077.2500
0457 1419838867 725516.6250
0458 1419841796 725486.5625
0459 1419844726 723815.1250
0460 1419847656 725519.2500
0461 1419850585 725445.4375
0462 1419853515 726259.4375
0463 1419856445 731671.5625
0464 1419859375 723303.6875
0465 1419862304 724020.9375
0466 1419865234 723631.0625
0467 1419868164 724772.2500
0468 1419871093 723835.4375
0469 1419874023 722329.0000
0470 1419876953 723149.8750
0471 1419879882 723308.5000
0472 1419882812 723588.5625
0473 1419885742 725537.3125
0474 1419888671 724357.7500
0475 1419891601 723058.3125
0476 1419894531 723676.5000
0477 1419897460 723020.0625
0478 1419900390 723633.5625
0479 1419903320 721902.4375
0480 1419906250 721563.2500
0481 1419909179 720979.8125
0482 1419912109 720844.5625
0483 1419915039 722610.3750
0484 1419917968 723517.0000
0485 1419920898 721227.0000
0486 1419923828 722428.2500
0487 1419926757 721935.3750
0488 1419929687 721219.4375
0489 1419932617 722564.5000
0490 1419935546 723026.8750
0491 1419938476 723209.4375
0492 1419941406 723222.1875
0493 1419944335 721771.6250
0494 1419947265 722092.6875
0495 1419950195 722933.1250
0496 1419953125 721575.6250
0497 1419956054 722100.3125
0498 1419958984 722278.6875
0499 1419961914 723958.0000
0500 1419964843 721298.4375
0501 1419967773 723540.9375
0502 1419970703 723606.0000
0503 1419973632 722695.7500
0504 1419976562 730286.8750
0505 1419979492 728268.8750
0506 1419982421 721891.5625
0507 1419985351 722776.0000
0508 1419988281 722405.8750
0509 1419991210 723613.7500
0510 1419994140 724253.5000
0511 1419997070 723021.5625
0512 1420000000 723608.8750
0513 1420002929 723126.5000
0514 1420005859 723365.3125
0515 1420008789 723866.5625
0516 1420011718 723644.3750
0517 1420014648 724201.6875
0518 1420017578 723258.9375
0519 1420020507 723446.6250
0520 1420023437 722136.0000
0521 1420026367 724416.8125
0522 1420029296 722814.8750
0523 1420032226 722855.6250
0524 1420035156 723302.3750
0525 1420038085 726058.6875
0526 1420041015 724395.9375
0527 1420043945 724677.7500
0528 1420046875 723755.0000
0529 1420049804 723679.7500
0530 1420052734 725394.8125
0531 1420055664 724832.3750
0532 1420058593 724878.4375
0533 1420061523 725209.3125
0534 1420064453 726118.8750
0535 1420067382 725769.1250
0536 1420070312 724385.6250
0537 1420073242 726687.9375
0538 1420076171 727431.3125
0539 1420079101 725050.4375
0540 1420082031 725876.3750
0541 1420084960 725907.0625
0542 1420087890 724724.3125
0543 1420090820 726708.4375
0544 1420093750 727298.9375
0545 1420096679 729942.0000
0546 1420099609 732347.0000
0547 1420102539 725550.6875
0548 1420105468 726008.0625
0549 1420108398 725656.7500
0550 1420111328 726409.1250
0551 1420114257 727576.3125
0552 1420117187 728453.0625
0553 1420120117 727738.1250
0554 1420123046 727242.3750
0555 1420125976 727894.8125
0556 1420128906 728279.4375
0557 1420131835 727509.5625
0558 1420134765 726656.5625
0559 1420137695 726764.5625
0560 1420140625 727797.5625
0561 1420143554 729991.9375
0562 1420146484 729111.1250
0563 1420149414 728887.7500
0564 1420152343 730772.5625
0565 1420155273 729301.3750
0566 1420158203 733056.1250
0567 1420161132 733512.4375
0568 1420164062 730210.5000
0569 1420166992 731084.8750
0570 1420169921 730344.7500
0571 1420172851 731070.2500
0572 1420175781 731823.1875
0573 1420178710 730509.8750
0574 1420181640 731648.6250
0575 1420184570 730591.5000
0576 1420187500 731287.1250
0577 1420190429 732815.3750
0578 1420193359 730808.2500
0579 1420196289 730666.6250
0580 1420199218 731331.3125
0581 1420202148 733289.6875
0582 1420205078 732674.6875
0583 1420208007 732225.3125
0584 1420210937 732574.1250
0585 1420213867 733026.3750
0586 1420216796 731943.6250
0587 1420219726 737176.7500
0588 1420222656 734260.0625
0589 1420225585 733614.6875
0590 1420228515 732846.7500
0591 1420231445 732528.3125
0592 1420234375 735196.5000
0593 1420237304 735704.1875
0594 1420240234 734033.6250
0595 1420243164 735610.6875
0596 1420246093 733318.8750
0597 1420249023 736817.1250
0598 1420251953 736810.8750
0599 1420254882 735010.0625
0600 1420257812 734535.4375
0601 1420260742 734905.9375
0602 1420263671 735734.4375
0603 1420266601 735527.1250
0604 1420269531 736031.6250
0605 1420272460 736147.5625
0606 1420275390 737446.4375
0607 1420278320 736765.1250
0608 1420281250 741300.8125
0609 1420284179 736992.6875
0610 1420287109 736858.7500
0611 1420290039 738224.3125
0612 1420292968 737810.3750
0613 1420295898 736958.1875
0614 1420298828 737046.6875
0615 1420301757 738933.5625
0616 1420304687 738981.5625
0617 1420307617 738158.9375
0618 1420310546 740216.1250
0619 1420313476 740209.2500
0620 1420316406 738573.5625
0621 1420319335 739765.3750
0622 1420322265 739094.5625
0623 1420325195 741047.5625
0624 1420328125 740426.7500
0625 1420331054 739518.1250
0626 1420333984 741617.3125
0627 1420336914 740821.2500
0628 1420339843 741042.6250
0629 1420342773 741369.0000
0630 1420345703 740212.1875
0631 1420348632 741284.5000
0632 1420351562 740395.6875
0633 1420354492 741327.4375
0634 1420357421 740044.0000
0635 1420360351 740807.0625
0636 1420363281 741987.2500
0637 1420366210 741851.8125
0638 1420369140 740579.8750
0639 1420372070 740648.3750
0640 1420375000 741715.6875
0641 1420377929 741882.2500
0642 1420380859 741326.6875
0643 1420383789 741036.6875
0644 1420386718 742040.4375
0645 1420389648 742944.3125
0646 1420392578 744705.5625
0647 1420395507 744872.8125
0648 1420398437 742247.4375
0649 1420401367 748228.8750
0650 1420404296 745442.3750
0651 1420407226 742820.1875
0652 1420410156 744065.8750
0653 1420413085 742167.3750
0654 1420416015 744067.8750
0655 1420418945 742278.5000
0656 1420421875 742596.8750
0657 1420424804 743990.0000
0658 1420427734 743533.2500
0659 1420430664 744933.8125
0660 1420433593 746513.1250
0661 1420436523 745757.8750
0662 1420439453 744690.8125
0663 1420442382 742560.6250
0664 1420445312 744208.9375
0665 1420448242 745187.8750
0666 1420451171 743991.5625
0667 1420454101 745192.6250
0668 1420457031 743988.6875
0669 1420459960 744268.0625
0670 1420462890 749959.0000
0671 1420465820 745980.3750
0672 1420468750 744769.5625
0673 1420471679 744844.0625
0674 1420474609 744377.0625
0675 1420477539 745891.8750
0676 1420480468 746216.5625
0677 1420483398 744863.9375
0678 1420486328 746945.2500
0679 1420489257 745847.1875
0680 1420492187 745873.3750
0681 1420495117 744060.9375
0682 1420498046 745677.1250
0683 1420500976 745543.1875
0684 1420503906 744978.4375
0685 1420506835 746538.0000
0686 1420509765 748107.0000
0687 1420512695 745309.5000
0688 1420515625 745064.3125
0689 1420518554 745850.1250
0690 1420521484 747711.5000
0691 1420524414 749166.3750
0692 1420527343 745416.4375
0693 1420530273 745857.6250
0694 1420533203 745273.1875
0695 1420536132 745550.4375
0696 1420539062 746646.0625
0697 1420541992 745217.3750
0698 1420544921 744663.1250
0699 1420547851 745500.9375
0700 1420550781 746074.1875
0701 1420553710 748002.0000
0702 1420556640 747236.0625
0703 1420559570 746952.5000
0704 1420562500 745895.2500
0705 1420565429 746115.6875
0706 1420568359 745062.3125
0707 1420571289 745350.6250
0708 1420574218 745040.1875
0709 1420577148 749287.3750
0710 1420580078 745179.4375
0711 1420583007 748776.3750
0712 1420585937 749113.6875
0713 1420588867 745326.6250
0714 1420591796 745534.5000
0715 1420594726 745352.0625
0716 1420597656 745076.9375
0717 1420600585 746245.6250
0718 1420603515 746998.9375
0719 1420606445 746783.5625
0720 1420609375 747068.5625
0721 1420612304 747964.1875
0722 1420615234 749115.3750
0723 1420618164 746354.1875
0724 1420621093 745896.4375
0725 1420624023 747417.1250
0726 1420626953 746699.8125
0727 1420629882 747791.6875
0728 1420632812 746169.3750
0729 1420635742 747397.0625
0730 1420638671 747376.3125
0731 1420641601 746287.7500
0732 1420644531 751652.5625
0733 1420647460 749343.8750
0734 1420650390 747856.6875
0735 1420653320 747858.8750
0736 1420656250 747068.8125
0737 1420659179 746768.1250
0738 1420662109 747798.4375
0739 1420665039 746857.2500
0740 1420667968 747950.8125
0741 1420670898 747257.3125
0742 1420673828 746832.9375
0743 1420676757 747179.5000
0744 1420679687 747239.0625
0745 1420682617 747455.8125
0746 1420685546 745925.3125
0747 1420688476 744640.9375
0748 1420691406 747119.6875
0749 1420694335 745186.2500
0750 1420697265 745891.8125
0751 1420700195 746393.4375
0752 1420703125 747948.6875
0753 1420706054 752327.4375
0754 1420708984 746685.3750
0755 1420711914 746380.1875
0756 1420714843 746531.8125
0757 1420717773 745552.1250
0758 1420720703 746016.7500
0759 1420723632 746073.8125
0760 1420726562 746681.0625
0761 1420729492 747648.1875
0762 1420732421 745535.2500
0763 1420735351 748341.4375
0764 1420738281 747367.7500
0765 1420741210 746472.3125
0766 1420744140 746595.0000
0767 1420747070 746097.5625
0768 1420750000 746262.5000
0769 1420752929 746018.0625
0770 1420755859 745607.0000
0771 1420758789 746007.1250
0772 1420761718 745962.5625
0773 1420764648 748057.5000
0774 1420767578 750684.1250
0775 1420770507 746701.3750
0776 1420773437 746970.9375
0777 1420776367 744930.4375
0778 1420779296 746732.4375
0779 1420782226 747771.9375
0780 1420785156 746075.6875
0781 1420788085 747093.3125
0782 1420791015 747572.3750
0783 1420793945 747952.6875
0784 1420796875 747191.6875
0785 1420799804 745742.0625
0786 1420802734 744477.0000
0787 1420805664 745329.0000
0788 1420808593 745269.8750
0789 1420811523 747393.7500
0790 1420814453 746316.8750
0791 1420817382 747187.6875
0792 1420820312 748639.4375
0793 1420823242 746679.3125
0794 1420826171 751809.4375
0795 1420829101 749525.4375
0796 1420832031 744889.3125
0797 1420834960 747933.5000
0798 1420837890 745502.8750
0799 1420840820 746674.6875
0800 1420843750 746176.2500
0801 1420846679 744162.0000
0802 1420849609 745475.6250
0803 1420852539 744085.6875
0804 1420855468 746139.7500
0805 1420858398 747468.2500
0806 1420861328 746111.5625
0807 1420864257 744721.1875
0808 1420867187 746287.0625
0809 1420870117 744499.4375
0810 1420873046 746261.4375
0811 1420875976 744242.8125
0812 1420878906 744427.5000
0813 1420881835 744925.2500
0814 1420884765 744955.3750
0815 1420887695 750420.6875
0816 1420890625 746083.5625
0817 1420893554 745127.9375
0818 1420896484 744481.4375
0819 1420899414 742260.5000
0820 1420902343 742824.5625
0821 1420905273 743951.5625
0822 1420908203 744550.8125
0823 1420911132 746432.6875
0824 1420914062 744590.1875
0825 1420916992 745138.8750
0826 1420919921 745195.6875
0827 1420922851 744648.5625
0828 1420925781 743572.7500
0829 1420928710 743772.5625
0830 1420931640 745933.4375
0831 1420934570 747175.7500
0832 1420937500 744356.2500
0833 1420940429 744823.3125
0834 1420943359 743138.5000
0835 1420946289 747270.0000
0836 1420949218 752214.3750
0837 1420952148 742801.6875
0838 1420955078 744211.3125
0839 1420958007 742474.6250
0840 1420960937 743385.8750
0841 1420963867 746176.6250
0842 1420966796 743354.4375
0843 1420969726 740739.0625
0844 1420972656 741410.3750
0845 1420975585 743867.8125
0846 1420978515 744080.2500
0847 1420981445 742864.5000
0848 1420984375 742755.8750
0849 1420987304 742019.2500
0850 1420990234 742289.3125
0851 1420993164 742781.1250
0852 1420996093 742245.1250
0853 1420999023 741982.0000
0854 1421001953 742472.2500
0855 1421004882 740508.7500
0856 1421007812 742135.1875
0857 1421010742 743460.6250
0858 1421013671 741686.2500
0859 1421016601 742104.5625
0860 1421019531 739511.0625
0861 1421022460 739843.0000
0862 1421025390 740363.8125
0863 1421028320 741580.9375
0864 1421031250 743067.2500
0865 1421034179 742449.0625
0866 1421037109 741774.0000
0867 1421040039 742077.5000
0868 1421042968 741282.2500
0869 1421045898 740962.5625
0870 1421048828 740736.2500
0871 1421051757 740226.5625
0872 1421054687 741337.6250
0873 1421057617 740648.2500
0874 1421060546 741156.5000
0875 1421063476 739726.9375
0876 1421066406 739821.0625
0877 1421069335 744161.3125
0878 1421072265 741639.6875
0879 1421075195 739822.2500
0880 1421078125 738741.6875
0881 1421081054 738654.3125
0882 1421083984 738974.1875
0883 1421086914 737882.3750
0884 1421089843 738473.8125
0885 1421092773 739296.0000
0886 1421095703 737999.7500
0887 1421098632 738778.9375
0888 1421101562 739215.6250
0889 1421104492 738478.0000
0890 1421107421 740289.8125
0891 1421110351 737590.8750
0892 1421113281 739154.8750
0893 1421116210 738894.8750
0894 1421119140 738177.3125
0895 1421122070 739681.7500
0896 1421125000 737522.6250
0897 1421127929 737885.1875
0898 1421130859 742002.6875
0899 1421133789 737731.1875
0900 1421136718 736909.0000
0901 1421139648 738163.6250
0902 1421142578 737656.3750
0903 1421145507 738175.1875
0904 1421148437 738795.6875
0905 1421151367 737948.8750
0906 1421154296 737921.8125
0907 1421157226 738263.2500
0908 1421160156 738126.4375
0909 1421163085 737680.3125
0910 1421166015 737326.7500
0911 1421168945 737602.3125
0912 1421171875 736881.6875
0913 1421174804 736366.4375
0914 1421177734 736801.2500
0915 1421180664 736070.9375
0916 1421183593 736694.0625
0917 1421186523 736395.4375
0918 1421189453 737686.4375
0919 1421192382 734623.3125
0920 1421195312 734038.0625
0921 1421198242 735959.1875
0922 1421201171 737014.3750
0923 1421204101 735198.0625
0924 1421207031 735335.5625
0925 1421209960 735339.6875
0926 1421212890 736391.1875
0927 1421215820 737747.3125
0928 1421218750 736264.5000
0929 1421221679 735653.0625
0930 1421224609 734882.7500
0931 1421227539 735463.3750
0932 1421230468 735122.7500
0933 1421233398 735011.0625
0934 1421236328 736510.7500
0935 1421239257 734658.1875
0936 1421242187 735391.8125
0937 1421245117 735890.3125
0938 1421248046 734843.5000
0939 1421250976 738134.3125
0940 1421253906 736568.9375
0941 1421256835 733242.1250
0942 1421259765 735328.0000
0943 1421262695 732432.1250
0944 1421265625 734275.5000
0945 1421268554 735985.6250
0946 1421271484 736238.6875
0947 1421274414 733910.5000
0948 1421277343 734721.6250
0949 1421280273 734907.1875
0950 1421283203 735773.8750
0951 1421286132 734579.0000
0952 1421289062 734891.1875
0953 1421291992 733482.0625
0954 1421294921 733008.7500
0955 1421297851 732335.4375
0956 1421300781 733798.5625
0957 1421303710 734550.5000
0958 1421306640 735495.5625
0959 1421309570 733737.0000
0960 1421312500 734174.5625
0961 1421315429 732931.0625
0962 1421318359 734122.8125
0963 1421321289 733239.8125
0964 1421324218 732663.3750
0965 1421327148 732751.1250
0966 1421330078 733118.3125
0967 1421333007 731021.5625
0968 1421335937 733447.7500
0969 1421338867 733518.3750
0970 1421341796 732160.1250
0971 1421344726 732821.7500
0972 1421347656 732006.5000
0973 1421350585 732247.4375
0974 1421353515 731359.8125
0975 1421356445 733377.1875
0976 1421359375 732870.2500
0977 1421362304 732445.3125
0978 1421365234 734482.2500
0979 1421368164 731234.7500
0980 1421371093 733761.0000
0981 1421374023 736751.6250
0982 1421376953 731560.8125
0983 1421379882 731374.6250
0984 1421382812 731985.4375
0985 1421385742 731330.5625
0986 1421388671 731028.5625
0987 1421391601 731050.7500
0988 1421394531 732933.0000
0989 1421397460 732138.9375
0990 1421400390 732642.3125
0991 1421403320 732910.3750
0992 1421406250 730373.6875
0993 1421409179 732380.3125
0994 1421412109 733153.8750
0995 1421415039 731786.8125
0996 1421417968 732180.0000
0997 1421420898 731819.7500
0998 1421423828 731701.1875
0999 1421426757 734661.3125
1000 1421429687 731330.1875
1001 1421432617 733550.5625
1002 1421435546 733724.1875
1003 1421438476 731910.1250
1004 1421441406 731043.8750
1005 1421444335 730185.8750
1006 1421447265 730712.3750
1007 1421450195 731223.8750
1008 1421453125 731463.5000
1009 1421456054 733029.5000
1010 1421458984 732877.7500
1011 1421461914 732707.9375
1012 1421464843 733518.3750
1013 1421467773 732138.1875
1014 1421470703 733034.8750
1015 1421473632 731911.5625
1016 1421476562 731050.3125
1017 1421479492 731324.2500
1018 1421482421 730975.3750
1019 1421485351 732063.1875
1020 1421488281 731703.9375
1021 1421491210 730700.5000
1022 1421494140 733108.6250
1023 1421497070 730879.1250
1024 1421500000 731473.1875
1025 1421502929 732231.0625
1026 1421505859 731372.0000
1027 1421508789 730003.1875
1028 1421511718 730964.8750
1029 1421514648 729687.4375
1030 1421517578 731365.8750
1031 1421520507 731623.6875
1032 1421523437 730372.4375
1033 1421526367 729360.0000
1034 1421529296 730463.5000
1035 1421532226 730934.8750
1036 1421535156 730655.5625
1037 1421538085 731113.3750
1038 1421541015 729211.3750
1039 1421543945 730459.1875
1040 1421546875 732359.3750
1041 1421549804 731260.3750
1042 1421552734 731874.6875
1043 1421555664 737365.2500
1044 1421558593 730439.5000
1045 1421561523 730510.6250
1046 1421564453 731267.3125
1047 1421567382 729744.2500
1048 1421570312 731305.1250
1049 1421573242 730383.3125
1050 1421576171 731532.3125
1051 1421579101 731420.0000
1052 1421582031 731624.6875
1053 1421584960 734074.4375
1054 1421587890 732835.5625
1055 1421590820 730174.1250
1056 1421593750 730194.8750
1057 1421596679 729978.1875
1058 1421599609 731074.3750
1059 1421602539 731725.1875
1060 1421605468 730365.4375
1061 1421608398 731244.6250
1062 1421611328 730309.3125
1063 1421614257 732264.0000
1064 1421617187 732531.0625
1065 1421620117 730548.3750
1066 1421623046 731404.2500
1067 1421625976 730620.3750
1068 1421628906 730380.2500
1069 1421631835 730875.3750
1070 1421634765 729671.0000
1071 1421637695 730551.9375
1072 1421640625 731767.0000
1073 1421643554 731752.8125
1074 1421646484 731061.0625
1075 1421649414 730414.3125
1076 1421652343 730947.1250
1077 1421655273 729980.6250
1078 1421658203 729527.1250
1079 1421661132 731002.8750
1080 1421664062 730827.8750
1081 1421666992 730075.5625
1082 1421669921 730532.5000
1083 1421672851 730826.1250
1084 1421675781 734891.5625
1085 1421678710 732625.0000
1086 1421681640 731467.6875
1087 1421684570 731413.7500
1088 1421687500 731689.8125
1089 1421690429 729716.3750
1090 1421693359 731054.1875
1091 1421696289 730381.8750
1092 1421699218 731726.3125
1093 1421702148 731642.8750
1094 1421705078 732193.9375
1095 1421708007 733157.1250
1096 1421710937 732380.6875
1097 1421713867 732126.1250
1098 1421716796 731663.5625
1099 1421719726 732094.1875
1100 1421722656 731229.5000
1101 1421725585 731517.3750
1102 1421728515 733366.5625
1103 1421731445 732012.9375
1104 1421734375 731475.0000
1105 1421737304 737095.6250
1106 1421740234 732678.6250
1107 1421743164 731496.2500
1108 1421746093 731834.8125
1109 1421749023 732289.9375
1110 1421751953 731678.7500
1111 1421754882 732419.2500
1112 1421757812 731833.4375
1113 1421760742 731326.5000
1114 1421763671 732191.2500
1115 1421766601 735555.5000
1116 1421769531 734709.8750
1117 1421772460 732013.9375
1118 1421775390 731915.5625
1119 1421778320 731210.3750
1120 1421781250 731394.2500
1121 1421784179 733382.6875
1122 1421787109 732250.0000
1123 1421790039 733178.5000
1124 1421792968 733193.8750
1125 1421795898 733986.1250
1126 1421798828 736340.8125
1127 1421801757 731616.1250
1128 1421804687 732996.8750
1129 1421807617 732368.2500
1130 1421810546 732519.3125
1131 1421813476 734396.3125
1132 1421816406 731711.7500
1133 1421819335 732363.6875
1134 1421822265 734476.2500
1135 1421825195 732599.3125
1136 1421828125 732929.1250
1137 1421831054 732737.5000
1138 1421833984 733945.6875
1139 1421836914 733086.1875
1140 1421839843 732365.8750
1141 1421842773 731608.5625
1142 1421845703 732182.8125
1143 1421848632 733470.3750
1144 1421851562 734748.1875
1145 1421854492 733867.4375
1146 1421857421 736257.3750
1147 1421860351 736889.6250
1148 1421863281 733222.1875
1149 1421866210 734841.6250
1150 1421869140 733935.8750
1151 1421872070 733208.8750
1152 1421875000 732212.3750
1153 1421877929 733323.4375
1154 1421880859 733915.1875
1155 1421883789 735143.9375
1156 1421886718 736254.6250
1157 1421889648 734762.4375
1158 1421892578 733547.5000
1159 1421895507 734674.4375
1160 1421898437 732217.5625
1161 1421901367 733622.0000
1162 1421904296 737047.8125
1163 1421907226 734531.6250
1164 1421910156 734506.3125
1165 1421913085 733758.3125
1166 1421916015 733913.1250
1167 1421918945 735734.0625
1168 1421921875 735361.5625
1169 1421924804 733957.8125
1170 1421927734 734520.7500
1171 1421930664 733575.0625
1172 1421933593 735195.0625
1173 1421936523 733559.8125
1174 1421939453 733891.2500
1175 1421942382 734941.9375
1176 1421945312 733314.0000
1177 1421948242 732708.1875
1178 1421951171 732221.3750
1179 1421954101 733325.3125
1180 1421957031 733755.9375
1181 1421959960 733808.2500
1182 1421962890 734444.5000
1183 1421965820 733196.2500
1184 1421968750 732545.6875
1185 1421971679 733768.5625
1186 1421974609 733330.0000
1187 1421977539 733434.0625
1188 1421980468 737776.6250
1189 1421983398 733111.4375
1190 1421986328 733516.0625
1191 1421989257 734044.4375
1192 1421992187 734585.3125
1193 1421995117 733825.3750
1194 1421998046 733469.0000
1195 1422000976 734387.8750
1196 1422003906 733916.0000
1197 1422006835 734307.5625
1198 1422009765 735105.6250
1199 1422012695 735385.1250
1200 1422015625 733166.5000
1201 1422018554 734334.8125
1202 1422021484 732778.8125
1203 1422024414 733310.2500
1204 1422027343 735342.0000
1205 1422030273 734967.3750
1206 1422033203 736261.8750
1207 1422036132 734821.3750
1208 1422039062 735096.4375
1209 1422041992 736687.9375
1210 1422044921 734902.6250
1211 1422047851 734431.9375
1212 1422050781 734051.5625
1213 1422053710 733179.1250
1214 1422056640 734756.4375
1215 1422059570 734433.5000
1216 1422062500 735633.0625
1217 1422065429 733952.5000
1218 1422068359 733364.9375
1219 1422071289 735291.5000
1220 1422074218 735120.8750
1221 1422077148 734283.0625
1222 1422080078 734372.2500
1223 1422083007 733227.6250
1224 1422085937 736449.3750
1225 1422088867 734678.5625
1226 1422091796 734294.0000
1227 1422094726 734155.7500
1228 1422097656 734461.8125
1229 1422100585 737489.8125
1230 1422103515 736048.0625
1231 1422106445 733689.3750
1232 1422109375 734458.5000
1233 1422112304 734054.0625
1234 1422115234 735132.0625
1235 1422118164 735317.3750
1236 1422121093 734408.6875
1237 1422124023 735478.2500
1238 1422126953 734488.8125
1239 1422129882 733909.1250
1240 1422132812 735499.5000
1241 1422135742 734789.9375
1242 1422138671 736304.3750
1243 1422141601 736885.5625
1244 1422144531 735423.5625
1245 1422147460 735219.0000
1246 1422150390 736087.8750
1247 1422153320 735925.8125
1248 1422156250 734784.9375
1249 1422159179 735556.1250
1250 1422162109 734856.5000
1251 1422165039 735122.8750
1252 1422167968 735527.5625
1253 1422170898 735228.1250
1254 1422173828 734510.5000
1255 1422176757 735261.6875
1256 1422179687 734727.8125
1257 1422182617 735147.0625
1258 1422185546 737785.3125
1259 1422188476 735668.6250
1260 1422191406 734877.3125
1261 1422194335 737011.4375
1262 1422197265 735907.9375
1263 1422200195 735751.2500
1264 1422203125 736492.1250
1265 1422206054 736467.0000
1266 1422208984 737442.5000
1267 1422211914 735530.5000
1268 1422214843 737385.8750
1269 1422217773 737529.5000
1270 1422220703 738606.6875
1271 1422223632 743120.3125
1272 1422226562 735447.5000
1273 1422229492 736540.6875
1274 1422232421 736559.0000
1275 1422235351 735218.6250
1276 1422238281 738028.0000
1277 1422241210 736489.3125
1278 1422244140 735582.5625
1279 1422247070 735810.1250
1280 1422250000 737246.8125
1281 1422252929 736582.3125
1282 1422255859 737590.5000
1283 1422258789 736505.7500
1284 1422261718 737295.0000
1285 1422264648 737487.6250
1286 1422267578 737964.7500
1287 1422270507 737535.3750
1288 1422273437 737041.6250
1289 1422276367 737288.0625
1290 1422279296 736239.1875
1291 1422282226 737677.0000
1292 1422285156 737839.5000
1293 1422288085 736730.6875
1294 1422291015 738869.1250
1295 1422293945 737155.3125
1296 1422296875 736300.3125
1297 1422299804 738360.6250
1298 1422302734 737492.3125
1299 1422305664 739497.6250
1300 1422308593 739304.7500
1301 1422311523 738916.2500
1302 1422314453 739209.6875
1303 1422317382 738515.5625
1304 1422320312 738195.3750
1305 1422323242 737321.4375
1306 1422326171 736627.3125
1307 1422329101 737903.5000
1308 1422332031 739595.6250
1309 1422334960 738993.3125
1310 1422337890 738659.6875
1311 1422340820 739101.2500
1312 1422343750 741573.8125
1313 1422346679 740080.9375
1314 1422349609 738200.3125
1315 1422352539 739072.0000
1316 1422355468 737321.5625
1317 1422358398 738275.2500
1318 1422361328 739092.9375
1319 1422364257 739946.0625
1320 1422367187 741358.0000
1321 1422370117 738639.2500
1322 1422373046 739336.7500
1323 1422375976 740634.9375
1324 1422378906 740223.0625
1325 1422381835 741177.1250
1326 1422384765 739080.6250
1327 1422387695 739279.8125
1328 1422390625 741412.9375
1329 1422393554 738658.6250
1330 1422396484 742548.5000
1331 1422399414 741878.8125
1332 1422402343 741713.4375
1333 1422405273 744093.4375
1334 1422408203 742109.0625
1335 1422411132 740755.8125
1336 1422414062 742289.3750
1337 1422416992 740375.6250
1338 1422419921 741320.7500
1339 1422422851 741087.1875
1340 1422425781 740972.7500
1341 1422428710 742051.2500
1342 1422431640 741008.1250
1343 1422434570 744944.6875
1344 1422437500 743269.2500
1345 1422440429 741085.9375
1346 1422443359 741223.5000
1347 1422446289 742139.0625
1348 1422449218 742018.5625
1349 1422452148 741837.6250
1350 1422455078 741511.9375
1351 1422458007 741637.0625
1352 1422460937 741091.1875
1353 1422463867 743340.1875
1354 1422466796 743849.1875
1355 1422469726 742268.4375
1356 1422472656 743071.1875
1357 1422475585 742675.2500
1358 1422478515 742034.8750
1359 1422481445 744099.9375
1360 1422484375 742246.8125
1361 1422487304 744517.2500
1362 1422490234 746939.1875
1363 1422493164 744663.9375
1364 1422496093 745987.1250
1365 1422499023 744681.8750
1366 1422501953 744886.1250
1367 1422504882 744211.0000
1368 1422507812 742506.3125
1369 1422510742 745289.1875
1370 1422513671 743177.8125
1371 1422516601 743536.0000
1372 1422519531 745740.4375
1373 1422522460 744736.1875
1374 1422525390 749077.2500
1375 1422528320 749080.5625
1376 1422531250 743805.9375
1377 1422534179 745435.3750
1378 1422537109 744370.9375
1379 1422540039 744125.0625
1380 1422542968 745537.9375
1381 1422545898 744404.6250
1382 1422548828 745550.3125
1383 1422551757 746035.6875
1384 1422554687 746373.7500
1385 1422557617 747165.4375
1386 1422560546 747448.7500
1387 1422563476 746876.2500
1388 1422566406 747231.4375
1389 1422569335 747156.0625
1390 1422572265 747127.8750
1391 1422575195 748008.6875
1392 1422578125 746841.2500
1393 1422581054 746633.6250
1394 1422583984 745480.3750
1395 1422586914 747840.1250
1396 1422589843 747083.1250
1397 1422592773 746496.2500
1398 1422595703 746571.7500
1399 1422598632 746466.0625
1400 1422601562 747278.5000
1401 1422604492 747967.0000
1402 1422607421 748401.3750
1403 1422610351 747039.6250
1404 1422613281 748554.8750
1405 1422616210 747355.0625
1406 1422619140 747272.2500
1407 1422622070 747256.5625
1408 1422625000 748484.3750
1409 1422627929 748440.0000
1410 1422630859 747298.1250
1411 1422633789 749569.1250
1412 1422636718 748999.3125
1413 1422639648 750260.5625
1414 1422642578 748168.5625
1415 1422645507 751353.0625
1416 1422648437 754471.3125
1417 1422651367 749223.9375
1418 1422654296 749653.8750
1419 1422657226 749332.2500
1420 1422660156 750477.0000
1421 1422663085 749895.1250
1422 1422666015 748573.4375
1423 1422668945 749951.0625
1424 1422671875 750981.1250
1425 1422674804 750242.6875
1426 1422677734 750496.5625
1427 1422680664 750623.3750
1428 1422683593 750838.8750
1429 1422686523 751262.8750
1430 1422689453 751299.5000
1431 1422692382 751432.3125
1432 1422695312 749469.5000
1433 1422698242 750632.3750
1434 1422701171 753108.3125
1435 1422704101 750631.1250
1436 1422707031 753953.5625
1437 1422709960 755563.8750
1438 1422712890 751821.1250
1439 1422715820 751973.0000
1440 1422718750 750637.0000
1441 1422721679 751708.5625
1442 1422724609 751903.6875
1443 1422727539 752966.1250
1444 1422730468 752151.6250
1445 1422733398 752762.5625
1446 1422736328 751804.8125
1447 1422739257 752996.6250
1448 1422742187 755156.8125
1449 1422745117 751817.6875
1450 1422748046 752601.1250
1451 1422750976 751736.9375
1452 1422753906 752445.5625
1453 1422756835 750262.7500
1454 1422759765 752325.5625
1455 1422762695 751281.1875
1456 1422765625 750739.4375
1457 1422768554 752402.8750
1458 1422771484 752194.1250
1459 1422774414 752590.4375
1460 1422777343 753861.6875
1461 1422780273 753321.9375
1462 1422783203 754574.0000
1463 1422786132 753308.4375
1464 1422789062 751977.6875
1465 1422791992 752426.8125
1466 1422794921 753766.1875
1467 1422797851 752315.8750
1468 1422800781 754310.6250
1469 1422803710 752334.6250
1470 1422806640 753640.3750
1471 1422809570 752505.2500
1472 1422812500 754026.1875
1473 1422815429 752906.8125
1474 1422818359 754381.0625
1475 1422821289 754334.3750
1476 1422824218 754305.5625
1477 1422827148 753866.3750
1478 1422830078 757065.9375
1479 1422833007 753550.4375
1480 1422835937 753754.3750
1481 1422838867 753217.3125
1482 1422841796 753305.0625
1483 1422844726 756487.9375
1484 1422847656 754769.0625
1485 1422850585 753856.3750
1486 1422853515 753590.6875
1487 1422856445 753624.6250
1488 1422859375 756411.7500
1489 1422862304 754288.5000
1490 1422865234 752975.5625
1491 1422868164 754352.3125
1492 1422871093 754190.6875
1493 1422874023 754966.8125
1494 1422876953 756144.3750
1495 1422879882 754769.8750
1496 1422882812 755901.5625
1497 1422885742 754145.8125
1498 1422888671 753924.5625
1499 1422891601 754640.8750
1500 1422894531 753951.3125
1501 1422897460 756994.2500
1502 1422900390 754887.5625
1503 1422903320 755824.5000
1504 1422906250 755273.0625
1505 1422909179 755102.0625
1506 1422912109 756201.8750
1507 1422915039 754312.9375
1508 1422917968 753859.2500
1509 1422920898 756855.4375
1510 1422923828 756908.3125
1511 1422926757 755128.0000
1512 1422929687 753853.6250
1513 1422932617 754431.5625
1514 1422935546 755088.4375
1515 1422938476 756166.1875
1516 1422941406 755273.2500
1517 1422944335 755749.7500
1518 1422947265 755013.3125
1519 1422950195 758711.9375
1520 1422953125 756905.0625
1521 1422956054 754969.3750
1522 1422958984 754157.5625
1523 1422961914 756159.7500
1524 1422964843 755494.4375
1525 1422967773 757551.7500
1526 1422970703 756961.6875
1527 1422973632 756890.5000
1528 1422976562 757258.8750
1529 1422979492 756644.5000
1530 1422982421 756798.0000
1531 1422985351 756314.6250
1532 1422988281 755656.1875
1533 1422991210 756328.1875
1534 1422994140 757635.5000
1535 1422997070 758571.1875
1536 1423000000 756892.1250
1537 1423002929 757481.8125
1538 1423005859 757988.8125
1539 1423008789 757474.1250
1540 1423011718 758402.3750
1541 1423014648 758428.7500
1542 1423017578 757687.1250
1543 1423020507 756857.0625
1544 1423023437 758412.3750
1545 1423026367 757411.1875
1546 1423029296 756941.3750
1547 1423032226 757837.0000
1548 1423035156 760053.6250
1549 1423038085 758432.2500
1550 1423041015 760094.1875
1551 1423043945 758609.6875
1552 1423046875 758421.4375
1553 1423049804 757590.2500
1554 1423052734 757299.4375
1555 1423055664 758273.8750
1556 1423058593 758464.6875
1557 1423061523 759204.7500
1558 1423064453 760548.4375
1559 1423067382 759349.8125
1560 1423070312 758769.6250
1561 1423073242 762377.8125
1562 1423076171 759717.9375
1563 1423079101 759653.9375
1564 1423082031 758794.0625
1565 1423084960 760554.0000
1566 1423087890 760623.8750
1567 1423090820 760126.6250
1568 1423093750 759470.8125
1569 1423096679 760212.6875
1570 1423099609 760395.4375
1571 1423102539 760564.6250
1572 1423105468 761772.4375
1573 1423108398 760177.6875
1574 1423111328 761485.3125
1575 1423114257 761297.3750
1576 1423117187 762205.3125
1577 1423120117 760649.3750
1578 1423123046 761396.0000
1579 1423125976 762782.6875
1580 1423128906 759752.1875
1581 1423131835 762444.2500
1582 1423134765 763724.8750
1583 1423137695 762092.1875
1584 1423140625 763473.4375
1585 1423143554 761039.6250
1586 1423146484 759506.6250
1587 1423149414 763325.5625
1588 1423152343 762353.2500
1589 1423155273 765139.3125
1590 1423158203 764478.7500
1591 1423161132 763789.3125
1592 1423164062 766221.3750
1593 1423166992 764837.7500
1594 1423169921 763788.4375
1595 1423172851 764011.1250
1596 1423175781 762695.1250
1597 1423178710 762756.1250
1598 1423181640 762304.4375
1599 1423184570 764276.5000
1600 1423187500 763588.3125
1601 1423190429 762948.9375
1602 1423193359 769631.5000
1603 1423196289 767678.6875
1604 1423199218 764399.8750
1605 1423202148 764093.3125
1606 1423205078 765300.0625
1607 1423208007 765531.0000
1608 1423210937 764634.2500
1609 1423213867 766004.6875
1610 1423216796 765805.8125
1611 1423219726 766101.8750
1612 1423222656 766834.3125
1613 1423225585 767467.8750
1614 1423228515 766207.8750
1615 1423231445 767373.5625
1616 1423234375 766423.8125
1617 1423237304 766736.3125
1618 1423240234 765868.1875
1619 1423243164 766132.3750
1620 1423246093 766757.4375
1621 1423249023 767342.1250
1622 1423251953 767017.3125
1623 1423254882 770597.3750
1624 1423257812 767089.0000
1625 1423260742 767764.4375
1626 1423263671 767999.5000
1627 1423266601 768807.8125
1628 1423269531 769431.5000
1629 1423272460 769701.6250
1630 1423275390 769102.1250
1631 1423278320 770602.0000
1632 1423281250 770110.3125
1633 1423284179 773035.1250
1634 1423287109 772498.0625
1635 1423290039 770583.0000
1636 1423292968 771328.1250
1637 1423295898 769074.3750
1638 1423298828 770983.5625
1639 1423301757 771019.3750
1640 1423304687 772323.9375
1641 1423307617 773044.4375
1642 1423310546 771452.4375
1643 1423313476 772895.0000
1644 1423316406 775123.1250
1645 1423319335 773970.9375
1646 1423322265 772974.1875
1647 1423325195 774098.8750
1648 1423328125 775245.8750
1649 1423331054 775752.1875
1650 1423333984 775112.5625
1651 1423336914 776352.8750
1652 1423339843 776943.6250
1653 1423342773 777125.1250
1654 1423345703 778930.4375
1655 1423348632 777540.5000
1656 1423351562 778965.3125
1657 1423354492 776661.5000
1658 1423357421 778141.8125
1659 1423360351 778253.5000
1660 1423363281 779053.5000
1661 1423366210 779154.7500
1662 1423369140 780687.4375
1663 1423372070 780192.5625
1664 1423375000 782653.2500
1665 1423377929 782769.2500
1666 1423380859 780929.5625
1667 1423383789 781423.3125
1668 1423386718 781781.5000
1669 1423389648 782324.6875
1670 1423392578 783660.9375
1671 1423395507 782737.0000
1672 1423398437 784213.8125
1673 1423401367 784078.5000
1674 1423404296 785320.8750
1675 1423407226 786935.8750
1676 1423410156 785519.6250
1677 1423413085 787856.2500
1678 1423416015 788836.1250
1679 1423418945 788473.5625
1680 1423421875 789327.3125
1681 1423424804 788047.1875
1682 1423427734 789633.6875
1683 1423430664 791003.3125
1684 1423433593 790408.8750
1685 1423436523 796474.3125
1686 1423439453 791654.9375
1687 1423442382 792106.9375
1688 1423445312 792909.0625
1689 1423448242 795183.3125
1690 1423451171 795759.1875
1691 1423454101 795828.0625
1692 1423457031 795192.2500
1693 1423459960 796553.6875
1694 1423462890 798783.3750
1695 1423465820 799642.5625
1696 1423468750 801020.5000
1697 1423471679 800667.5000
1698 1423474609 798895.8125
1699 1423477539 800876.2500
1700 1423480468 804211.6875
1701 1423483398 803993.8750
1702 1423486328 803227.8750
1703 1423489257 805541.3125
1704 1423492187 806200.6875
1705 1423495117 806958.4375
1706 1423498046 810458.0625
1707 1423500976 809826.7500
1708 1423503906 810195.6875
1709 1423506835 811931.2500
1710 1423509765 810789.8750
1711 1423512695 812030.0000
1712 1423515625 811675.5625
1713 1423518554 814070.2500
1714 1423521484 814779.8750
1715 1423524414 816245.0625
1716 1423527343 817317.2500
1717 1423530273 819211.8125
1718 1423533203 821410.6250
1719 1423536132 821068.6250
1720 1423539062 821563.8750
1721 1423541992 824493.0625
1722 1423544921 824300.7500
1723 1423547851 825393.0625
1724 1423550781 828488.0000
1725 1423553710 828629.5625
1726 1423556640 834089.8125
1727 1423559570 836556.8125
1728 1423562500 831939.6250
1729 1423565429 833224.0000
1730 1423568359 836004.0625
1731 1423571289 839169.9375
1732 1423574218 839586.8750
1733 1423577148 840688.9375
1734 1423580078 842168.8125
1735 1423583007 844541.5000
1736 1423585937 844983.9375
1737 1423588867 848532.8125
1738 1423591796 850427.5625
1739 1423594726 852819.8125
1740 1423597656 853617.3125
1741 1423600585 855210.1875
1742 1423603515 858170.3750
1743 1423606445 858011.4375
1744 1423609375 861058.2500
1745 1423612304 864032.4375
1746 1423615234 864474.3125
1747 1423618164 870371.9375
1748 1423621093 872151.0000
1749 1423624023 873271.4375
1750 1423626953 874019.6250
1751 1423629882 875746.8750
1752 1423632812 879623.3125
1753 1423635742 881105.3750
1754 1423638671 882797.7500
1755 1423641601 887915.7500
1756 1423644531 886910.6250
1757 1423647460 889212.2500
1758 1423650390 892073.1875
1759 1423653320 895251.1250
1760 1423656250 898256.4375
1761 1423659179 900468.3750
1762 1423662109 904825.6875
1763 1423665039 909385.1250
1764 1423667968 911779.5000
1765 1423670898 914463.6250
1766 1423673828 915938.4375
1767 1423676757 921155.8750
1768 1423679687 926598.3750
1769 1423682617 926001.8125
1770 1423685546 931143.3125
1771 1423688476 931892.3750
1772 1423691406 935210.5625
1773 1423694335 938601.0625
1774 1423697265 943884.6250
1775 1423700195 946269.0000
1776 1423703125 951009.3125
1777 1423706054 955036.9375
1778 1423708984 960734.8750
1779 1423711914 963252.5625
1780 1423714843 965054.4375
1781 1423717773 970680.5625
1782 1423720703 973810.4375
1783 1423723632 978444.8750
1784 1423726562 983681.5000
1785 1423729492 988099.6250
1786 1423732421 994401.9375
1787 1423735351 998134.4375
1788 1423738281 1003814.6875
1789 1423741210 1008265.8750
1790 1423744140 1012928.7500
1791 1423747070 1018683.1250
1792 1423750000 1023417.2500
1793 1423752929 1031422.7500
1794 1423755859 1041118.3750
1795 1423758789 1058160.3750
1796 1423761718 1080932.3750
1797 1423764648 1123458.3750
1798 1423767578 1073508.1250
1799 1423770507 1062266.1250
1800 1423773437 1068560.1250
1801 1423776367 1072659.6250
1802 1423779296 1078103.3750
1803 1423782226 1080695.8750
1804 1423785156 1091066.6250
1805 1423788085 1096552.1250
1806 1423791015 1100775.6250
1807 1423793945 1109422.1250
1808 1423796875 1112324.1250
1809 1423799804 1123145.2500
1810 1423802734 1129157.8750
1811 1423805664 1131584.7500
1812 1423808593 1137704.6250
1813 1423811523 1145667.5000
1814 1423814453 1151048.1250
1815 1423817382 1155895.8750
1816 1423820312 1161141.3750
1817 1423823242 1167644.6250
1818 1423826171 1174263.2500
1819 1423829101 1180973.5000
1820 1423832031 1187665.8750
1821 1423834960 1191944.2500
1822 1423837890 1197087.6250
1823 1423840820 1202053.7500
1824 1423843750 1206278.2500
1825 1423846679 1210204.1250
1826 1423849609 1214124.2500
1827 1423852539 1220349.8750
1828 1423855468 1221987.7500
1829 1423858398 1226499.5000
1830 1423861328 1229029.8750
1831 1423864257 1230180.8750
1832 1423867187 1231063.3750
1833 1423870117 1234436.8750
1834 1423873046 1233005.8750
1835 1423875976 1230746.6250
1836 1423878906 1229951.2500
1837 1423881835 1228934.0000
1838 1423884765 1228581.5000
1839 1423887695 1222437.0000
1840 1423890625 1217597.5000
1841 1423893554 1212318.7500
1842 1423896484 1204163.5000
1843 1423899414 1195213.5000
1844 1423902343 1184928.6250
1845 1423905273 1176916.8750
1846 1423908203 1167602.8750
1847 1423911132 1151741.5000
1848 1423914062 1137527.2500
1849 1423916992 1120700.7500
1850 1423919921 1104465.1250
1851 1423922851 1091029.5000
1852 1423925781 1070770.8750
1853 1423928710 1048119.1250
1854 1423931640 1026409.6250
1855 1423934570 1003046.2500
1856 1423937500 981308.3125
1857 1423940429 957672.5000
1858 1423943359 931556.0625
1859 1423946289 904846.8125
1860 1423949218 877655.7500
1861 1423952148 851802.0000
1862 1423955078 824730.5000
1863 1423958007 795965.0625
1864 1423960937 765955.5625
1865 1423963867 738556.6875
1866 1423966796 710914.4375
1867 1423969726 681758.7500
1868 1423972656 653374.5000
1869 1423975585 625533.7500
1870 1423978515 597238.3750
1871 1423981445 570822.6875
1872 1423984375 544463.5000
1873 1423987304 517508.3125
1874 1423990234 494387.9375
1875 1423993164 467804.5625
1876 1423996093 443964.7188
1877 1423999023 420821.2188
1878 1424001953 398206.8125
1879 1424004882 377026.8125
1880 1424007812 356174.5625
1881 1424010742 336312.1250
1882 1424013671 316759.4062
1883 1424016601 297780.8438
1884 1424019531 280066.0938
1885 1424022460 264034.1875
1886 1424025390 247726.3438
1887 1424028320 232660.0000
1888 1424031250 218289.2031
1889 1424034179 204694.2031
1890 1424037109 191570.8906
1891 1424040039 179446.8594
1892 1424042968 168650.6719
1893 1424045898 156936.4062
1894 1424048828 146285.6719
1895 1424051757 136598.6875
1896 1424054687 127042.1484
1897 1424057617 118639.7422
1898 1424060546 110439.0469
1899 1424063476 102842.3984
1900 1424066406 95929.8125
1901 1424069335 88977.5078
1902 1424072265 82605.4062
1903 1424075195 76536.7656
1904 1424078125 70957.9922
1905 1424081054 65860.5859
1906 1424083984 61009.3633
1907 1424086914 56463.8984
1908 1424089843 52207.8320
1909 1424092773 48230.0469
1910 1424095703 44486.5078
1911 1424098632 40962.9727
1912 1424101562 37809.7695
1913 1424104492 34964.4023
1914 1424107421 31969.3828
1915 1424110351 29375.8418
1916 1424113281 26970.1602
1917 1424116210 24711.9258
1918 1424119140 22609.2539
1919 1424122070 20715.9824
1920 1424125000 18966.3027
1921 1424127929 17326.9941
1922 1424130859 15876.2744
1923 1424133789 14475.2734
1924 1424136718 13098.8574
1925 1424139648 11934.3984
1926 1424142578 10713.0166
1927 1424145507 9666.4043
1928 1424148437 8721.4092
1929 1424151367 7875.9526
1930 1424154296 7080.5312
1931 1424157226 6369.6069
1932 1424160156 5766.2881
1933 1424163085 5314.3379
1934 1424166015 4803.1890
1935 1424168945 4298.3613
1936 1424171875 3744.2471
1937 1424174804 3212.6077
1938 1424177734 2821.4546
1939 1424180664 2488.6853
1940 1424183593 2175.4717
1941 1424186523 1912.5062
1942 1424189453 1676.4515
1943 1424192382 1463.6927
1944 1424195312 1282.6134
1945 1424198242 1111.2446
1946 1424201171 971.2651
1947 1424204101 858.1317
1948 1424207031 736.0069
1949 1424209960 654.0782
1950 1424212890 592.0964
1951 1424215820 502.6809
1952 1424218750 493.4060
1953 1424221679 488.8153
1954 1424224609 549.9611
1955 1424227539 1437.3906
1956 1424230468 687.6788
1957 1424233398 323.9556
1958 1424236328 306.2374
1959 1424239257 297.1615
1960 1424242187 303.1441
1961 1424245117 306.9429
1962 1424248046 314.2705
1963 1424250976 330.2162
1964 1424253906 342.0902
1965 1424256835 356.6067
1966 1424259765 375.5107
1967 1424262695 391.4764
1968 1424265625 410.5167
1969 1424268554 429.6222
1970 1424271484 447.9039
1971 1424274414 467.9494
1972 1424277343 486.6903
1973 1424280273 513.7617
1974 1424283203 564.2558
1975 1424286132 543.8664
1976 1424289062 551.0113
1977 1424291992 567.1013
1978 1424294921 579.3860
1979 1424297851 588.8680
1980 1424300781 600.6097
1981 1424303710 612.4642
1982 1424306640 641.5173
1983 1424309570 642.0037
1984 1424312500 901.6868
1985 1424315429 2634.4673
1986 1424318359 1575.1674
1987 1424321289 910.0004
1988 1424324218 1174.0333
1989 1424327148 708.3722
1990 1424330078 707.4601
1991 1424333007 728.2493
1992 1424335937 623.8669
1993 1424338867 647.6302
1994 1424341796 627.9062
1995 1424344726 584.7182
1996 1424347656 588.9286
1997 1424350585 564.9850
1998 1424353515 543.8044
1999 1424356445 535.1277
2000 1424359375 518.4011
2001 1424362304 501.4894
2002 1424365234 488.9435
2003 1424368164 472.4596
2004 1424371093 457.1614
2005 1424374023 441.2707
2006 1424376953 425.6035
2007 1424379882 409.9110
2008 1424382812 393.6856
2009 1424385742 377.7859
2010 1424388671 362.6793
2011 1424391601 347.2396
2012 1424394531 346.9479
2013 1424397460 336.0057
2014 1424400390 344.2777
2015 1424403320 735.0412
2016 1424406250 583.4656
2017 1424409179 1016.4630
2018 1424412109 2842.2173
2019 1424415039 710.6844
2020 1424417968 303.0888
2021 1424420898 357.7662
2022 1424423828 231.6749
2023 1424426757 202.6375
2024 1424429687 200.1836
2025 1424432617 177.2959
2026 1424435546 170.5014
2027 1424438476 155.5952
2028 1424441406 166.0141
2029 1424444335 179.2335
2030 1424447265 135.9967
2031 1424450195 200.5278
2032 1424453125 198.7240
2033 1424456054 127.2998
2034 1424458984 288.2954
2035 1424461914 187.3858
2036 1424464843 148.5092
2037 1424467773 383.8531
2038 1424470703 154.0149
2039 1424473632 207.2900
2040 1424476562 367.0020
2041 1424479492 114.0138
2042 1424482421 232.9789
2043 1424485351 229.4076
2044 1424488281 88.8280
2045 1424491210 151.6596
2046 1424494140 126.0109
2047 1424497070 130.7891
