# FILE      =  Ref.ast
# NOTEA     = Small 8inch bucket horn RTLSDR
# NOTEB     = Spectral Integration
# OBSERVER  = Science Aficionado
# DEVICE    = rtl=0,bias=1
# DATADIR   = ../data/
# SITE      = Small 8inch bucket horn RTLSDR
# CITY      = Green Bank
# REGION    = West Virginia
# COUNTRY   = US
# TELTYPE   = Bubble Wrap  Horn
# FRAME     = TOPO
# GAIN1     = 49.6
# GAIN2     = 11.0
# GAIN3     = 11.0
# GAIN4     = 0.0
# Count     = 21300224
# REFFREQ   = 1420405751.768
# OBSFREQ   = 1420500000.0
# OBSBW     = 2400000.0
# Duration  = 43.432771
# DeltaX    = 5859.375
# TSYS      = 200.0
# TRX       = 100.0
# TRMS      = 2.0
# TINT      = 1.0
# KPERC     = 100.0
# GAINFACT  = 1.0
# BUNIT     = Counts
# NCHAN     = 1024
# NSPEC     = 1
# NTIME     = 0
# NSAMPLES  = 0
# EPEAK     = 4.10875183718
# ERMS      = 0.995973393526
# EMJD      = 58568.808999981004 
# REFCHAN   = 512.0
# REFSAMPL  = 256.0
# NAVE      = 20801
# NMEDIAN   = 1024
# Fft_rate  = 5000
# UTC       = 2022-02-17 18:36:03.654824
# SECONDS   =       0.0000000000 
# LST       = 00:00:00.000
# AZ        = 0.0
# EL        = 90.0
# TELLON    = -79:49:54.459
# TELLAT    = +38:25:19.196
# TELALT    = 819.676
# RA        = 08:50:31.660
# DEC       = -38:15:15.500
# GALLON    = 259:50:58.20
# GALLAT    = +03:42:36.80
# ALT_SUN   = +37:00:33.9
# AZ_SUN    = +157:41:08.7
# ETAA      = 0.8
# ETAB      = 0.99
# POLANGLE  = 0.0
# TELSIZEAM = 1.0
# TELSIZEBM = 1.0
# AST_VERS  = 5.0.1
# N  Frequency  Intensity 
#       (Hz)    (Counts) 
0000 1419300000 3393.4485
0001 1419302343 3373.4966
0002 1419304687 3393.4485
0003 1419307031 3345.9722
0004 1419309375 3380.9421
0005 1419311718 3321.2412
0006 1419314062 3294.4583
0007 1419316406 3307.2827
0008 1419318750 3286.6736
0009 1419321093 3237.8528
0010 1419323437 3306.3430
0011 1419325781 3272.4102
0012 1419328125 3191.7817
0013 1419330468 3230.4673
0014 1419332812 3241.9043
0015 1419335156 3199.6714
0016 1419337500 3219.7876
0017 1419339843 3219.2356
0018 1419342187 3188.6028
0019 1419344531 3191.6245
0020 1419346875 3213.8552
0021 1419349218 3218.8887
0022 1419351562 3181.4475
0023 1419353906 3204.5510
0024 1419356250 3200.8284
0025 1419358593 3176.2874
0026 1419360937 3191.8965
0027 1419363281 3255.4314
0028 1419365625 3288.8450
0029 1419367968 3274.5779
0030 1419370312 3298.6599
0031 1419372656 3312.8479
0032 1419375000 3348.1016
0033 1419377343 3380.6265
0034 1419379687 3370.3433
0035 1419382031 3386.6367
0036 1419384375 3457.9915
0037 1419386718 3531.7983
0038 1419389062 3443.0063
0039 1419391406 3494.2031
0040 1419393750 3605.3325
0041 1419396093 3579.8022
0042 1419398437 3638.7944
0043 1419400781 3744.6885
0044 1419403125 3772.5334
0045 1419405468 3798.0974
0046 1419407812 3862.4404
0047 1419410156 3954.2205
0048 1419412500 3922.1384
0049 1419414843 3983.4705
0050 1419417187 4043.4509
0051 1419419531 3998.5393
0052 1419421875 4040.4753
0053 1419424218 4136.1255
0054 1419426562 4217.1655
0055 1419428906 4277.2715
0056 1419431250 4440.8721
0057 1419433593 4435.8267
0058 1419435937 4516.0337
0059 1419438281 4554.2847
0060 1419440625 4590.2271
0061 1419442968 4653.9575
0062 1419445312 4728.1777
0063 1419447656 4770.4443
0064 1419450000 4771.7720
0065 1419452343 4813.8950
0066 1419454687 4890.3330
0067 1419457031 5044.8975
0068 1419459375 5116.7388
0069 1419461718 5156.1396
0070 1419464062 5244.0679
0071 1419466406 5234.6353
0072 1419468750 5466.8960
0073 1419471093 5461.6440
0074 1419473437 5490.9570
0075 1419475781 5641.7520
0076 1419478125 5645.9995
0077 1419480468 5692.8965
0078 1419482812 5798.8882
0079 1419485156 5881.5542
0080 1419487500 5884.0811
0081 1419489843 5944.7534
0082 1419492187 6071.2334
0083 1419494531 6145.9243
0084 1419496875 6146.5947
0085 1419499218 6291.3135
0086 1419501562 6295.4194
0087 1419503906 6367.0054
0088 1419506250 6512.6460
0089 1419508593 6581.6704
0090 1419510937 6574.1519
0091 1419513281 6601.7397
0092 1419515625 6771.2920
0093 1419517968 6672.9805
0094 1419520312 6864.3169
0095 1419522656 6939.9497
0096 1419525000 6974.1597
0097 1419527343 7061.5459
0098 1419529687 7157.0474
0099 1419532031 7157.2222
0100 1419534375 7179.4580
0101 1419536718 7463.4302
0102 1419539062 7427.3418
0103 1419541406 7479.2690
0104 1419543750 7512.8433
0105 1419546093 7721.4902
0106 1419548437 7575.2729
0107 1419550781 7657.7378
0108 1419553125 7877.2144
0109 1419555468 7957.8794
0110 1419557812 7929.4800
0111 1419560156 8056.2676
0112 1419562500 8159.5361
0113 1419564843 8080.1245
0114 1419567187 8349.3252
0115 1419569531 8374.3486
0116 1419571875 8269.3057
0117 1419574218 8246.1865
0118 1419576562 8520.8145
0119 1419578906 8597.6064
0120 1419581250 8424.7998
0121 1419583593 8749.2070
0122 1419585937 8704.6309
0123 1419588281 8763.2471
0124 1419590625 8964.5547
0125 1419592968 8887.5078
0126 1419595312 8887.2656
0127 1419597656 8930.0381
0128 1419600000 9235.2666
0129 1419602343 9151.7432
0130 1419604687 9144.1074
0131 1419607031 9089.3350
0132 1419609375 9148.6025
0133 1419611718 9225.7314
0134 1419614062 9412.2070
0135 1419616406 9485.4365
0136 1419618750 9419.1777
0137 1419621093 9510.2510
0138 1419623437 9668.9707
0139 1419625781 9739.3379
0140 1419628125 9883.3486
0141 1419630468 9906.4629
0142 1419632812 9813.2451
0143 1419635156 9948.8896
0144 1419637500 9903.4531
0145 1419639843 9999.6074
0146 1419642187 9817.3779
0147 1419644531 9870.0645
0148 1419646875 10084.5947
0149 1419649218 9991.5713
0150 1419651562 10214.6924
0151 1419653906 10226.0391
0152 1419656250 10174.4023
0153 1419658593 10417.3379
0154 1419660937 10203.3936
0155 1419663281 10211.2744
0156 1419665625 10495.6113
0157 1419667968 10481.8789
0158 1419670312 10474.7168
0159 1419672656 10534.4082
0160 1419675000 10650.9424
0161 1419677343 10474.8115
0162 1419679687 10501.3506
0163 1419682031 10625.9395
0164 1419684375 10695.3320
0165 1419686718 10599.4502
0166 1419689062 10758.1758
0167 1419691406 10914.3867
0168 1419693750 10718.7803
0169 1419696093 10765.3828
0170 1419698437 11084.2139
0171 1419700781 10917.3545
0172 1419703125 10715.0771
0173 1419705468 10852.7031
0174 1419707812 10764.4775
0175 1419710156 10853.3369
0176 1419712500 11127.0811
0177 1419714843 11078.5137
0178 1419717187 11058.8926
0179 1419719531 11116.6357
0180 1419721875 11202.4639
0181 1419724218 11160.2412
0182 1419726562 11213.8623
0183 1419728906 11241.9561
0184 1419731250 11180.1670
0185 1419733593 11204.2412
0186 1419735937 11302.1621
0187 1419738281 11119.8350
0188 1419740625 11151.7520
0189 1419742968 11203.8125
0190 1419745312 11190.4512
0191 1419747656 11288.0762
0192 1419750000 11284.0459
0193 1419752343 11407.6182
0194 1419754687 11321.5078
0195 1419757031 11322.4180
0196 1419759375 11581.4424
0197 1419761718 11609.6904
0198 1419764062 11235.8467
0199 1419766406 11484.5273
0200 1419768750 11295.1543
0201 1419771093 11144.0488
0202 1419773437 11463.0889
0203 1419775781 11435.1436
0204 1419778125 11394.3428
0205 1419780468 11497.4434
0206 1419782812 11407.0781
0207 1419785156 11271.6582
0208 1419787500 11418.2822
0209 1419789843 11554.3213
0210 1419792187 11492.4424
0211 1419794531 11342.7852
0212 1419796875 11392.4023
0213 1419799218 11348.4102
0214 1419801562 11081.0703
0215 1419803906 11367.8926
0216 1419806250 11283.2578
0217 1419808593 11269.8311
0218 1419810937 11522.2832
0219 1419813281 11582.4648
0220 1419815625 11342.7148
0221 1419817968 11439.0469
0222 1419820312 11694.0947
0223 1419822656 11328.6465
0224 1419825000 11445.5098
0225 1419827343 11431.8516
0226 1419829687 11360.7080
0227 1419832031 11316.2725
0228 1419834375 11185.4980
0229 1419836718 11223.8223
0230 1419839062 11336.0244
0231 1419841406 11437.0195
0232 1419843750 11484.8877
0233 1419846093 11277.2373
0234 1419848437 11364.1357
0235 1419850781 11376.0488
0236 1419853125 11291.1934
0237 1419855468 11216.6152
0238 1419857812 11544.6904
0239 1419860156 11261.1543
0240 1419862500 11300.1387
0241 1419864843 11186.0957
0242 1419867187 11072.7695
0243 1419869531 11075.9766
0244 1419871875 11210.7148
0245 1419874218 11348.4980
0246 1419876562 11106.0898
0247 1419878906 11160.2402
0248 1419881250 11431.4307
0249 1419883593 11258.5498
0250 1419885937 11192.2861
0251 1419888281 11244.9834
0252 1419890625 11055.9365
0253 1419892968 11024.8545
0254 1419895312 11185.6787
0255 1419897656 11085.6055
0256 1419900000 11108.2734
0257 1419902343 11099.5615
0258 1419904687 11142.4580
0259 1419907031 11076.8105
0260 1419909375 11016.1670
0261 1419911718 11039.0273
0262 1419914062 10986.9189
0263 1419916406 11100.4551
0264 1419918750 11215.6289
0265 1419921093 10978.7227
0266 1419923437 10796.1387
0267 1419925781 10963.8125
0268 1419928125 10832.9570
0269 1419930468 10675.6855
0270 1419932812 10916.4385
0271 1419935156 10807.5977
0272 1419937500 10871.7617
0273 1419939843 10767.2373
0274 1419942187 10993.8008
0275 1419944531 10912.5547
0276 1419946875 10851.5947
0277 1419949218 10696.3086
0278 1419951562 10719.4541
0279 1419953906 10655.5146
0280 1419956250 10888.2314
0281 1419958593 10714.1689
0282 1419960937 10643.7275
0283 1419963281 10848.7285
0284 1419965625 10818.0430
0285 1419967968 10708.8320
0286 1419970312 10828.4092
0287 1419972656 10754.5957
0288 1419975000 10744.0195
0289 1419977343 10600.2412
0290 1419979687 10597.0732
0291 1419982031 10568.1367
0292 1419984375 10638.2744
0293 1419986718 10639.9658
0294 1419989062 10472.8867
0295 1419991406 10524.0918
0296 1419993750 10536.9688
0297 1419996093 10578.4990
0298 1419998437 10432.7930
0299 1420000781 10502.2451
0300 1420003125 10682.3555
0301 1420005468 10558.9795
0302 1420007812 10484.6445
0303 1420010156 10543.7568
0304 1420012500 10420.7949
0305 1420014843 10572.9189
0306 1420017187 10534.1934
0307 1420019531 10428.3945
0308 1420021875 10416.5615
0309 1420024218 10279.4316
0310 1420026562 10538.8008
0311 1420028906 10466.6826
0312 1420031250 10472.4023
0313 1420033593 10624.6992
0314 1420035937 10538.9111
0315 1420038281 10406.8975
0316 1420040625 10615.7373
0317 1420042968 10507.7656
0318 1420045312 10340.9785
0319 1420047656 10316.6396
0320 1420050000 10288.2168
0321 1420052343 10340.1426
0322 1420054687 10263.6367
0323 1420057031 10334.5371
0324 1420059375 10267.8389
0325 1420061718 10275.3242
0326 1420064062 10444.4102
0327 1420066406 10231.4189
0328 1420068750 10212.3652
0329 1420071093 10269.8916
0330 1420073437 10322.8447
0331 1420075781 10129.7910
0332 1420078125 10253.4922
0333 1420080468 10244.4629
0334 1420082812 10273.9375
0335 1420085156 10342.7305
0336 1420087500 10223.4512
0337 1420089843 10347.5869
0338 1420092187 10350.9492
0339 1420094531 10293.3271
0340 1420096875 10363.3311
0341 1420099218 10275.6533
0342 1420101562 10395.2217
0343 1420103906 10188.2373
0344 1420106250 10123.1055
0345 1420108593 10327.5137
0346 1420110937 10312.1533
0347 1420113281 10111.6865
0348 1420115625 10268.7920
0349 1420117968 10240.2988
0350 1420120312 10125.1562
0351 1420122656 10245.9727
0352 1420125000 10513.3477
0353 1420127343 10427.4326
0354 1420129687 10240.4941
0355 1420132031 10274.9316
0356 1420134375 10224.1641
0357 1420136718 10143.4443
0358 1420139062 10385.4287
0359 1420141406 10386.4268
0360 1420143750 10284.8076
0361 1420146093 10469.6045
0362 1420148437 10387.0732
0363 1420150781 10217.4033
0364 1420153125 10166.2100
0365 1420155468 10303.7627
0366 1420157812 10301.0361
0367 1420160156 10376.8672
0368 1420162500 10350.6680
0369 1420164843 10390.2686
0370 1420167187 10366.1992
0371 1420169531 10490.5967
0372 1420171875 10435.2783
0373 1420174218 10380.0908
0374 1420176562 10502.5957
0375 1420178906 10415.1543
0376 1420181250 10245.7891
0377 1420183593 10465.6826
0378 1420185937 10548.3154
0379 1420188281 10537.6611
0380 1420190625 10475.0928
0381 1420192968 10417.8135
0382 1420195312 10412.5674
0383 1420197656 10359.4629
0384 1420200000 10639.4980
0385 1420202343 10676.7959
0386 1420204687 10624.2578
0387 1420207031 10592.8799
0388 1420209375 10485.9307
0389 1420211718 10447.9756
0390 1420214062 10349.4248
0391 1420216406 10660.0010
0392 1420218750 10581.9736
0393 1420221093 10612.9365
0394 1420223437 10778.7158
0395 1420225781 10650.9102
0396 1420228125 10622.6025
0397 1420230468 10709.4541
0398 1420232812 10747.7402
0399 1420235156 10750.7529
0400 1420237500 10732.3652
0401 1420239843 10591.7461
0402 1420242187 10554.0225
0403 1420244531 10605.6318
0404 1420246875 10693.4580
0405 1420249218 10674.8750
0406 1420251562 10694.8545
0407 1420253906 10926.6621
0408 1420256250 10851.4893
0409 1420258593 10683.5674
0410 1420260937 11002.1729
0411 1420263281 10819.7666
0412 1420265625 10881.5762
0413 1420267968 11037.5967
0414 1420270312 10980.8906
0415 1420272656 10854.9111
0416 1420275000 10803.2959
0417 1420277343 10840.3330
0418 1420279687 10928.0410
0419 1420282031 11053.6729
0420 1420284375 11153.1768
0421 1420286718 10926.9707
0422 1420289062 11068.8428
0423 1420291406 11203.0674
0424 1420293750 11075.6455
0425 1420296093 11011.4502
0426 1420298437 11203.0908
0427 1420300781 11232.7236
0428 1420303125 11151.6045
0429 1420305468 11203.3291
0430 1420307812 11198.9590
0431 1420310156 11099.5615
0432 1420312500 11100.7803
0433 1420314843 11081.8428
0434 1420317187 11346.3213
0435 1420319531 11189.3750
0436 1420321875 11383.1406
0437 1420324218 11292.8281
0438 1420326562 11342.9971
0439 1420328906 11434.1914
0440 1420331250 11558.5254
0441 1420333593 11227.3281
0442 1420335937 11351.4297
0443 1420338281 11434.6719
0444 1420340625 11356.5801
0445 1420342968 11447.8340
0446 1420345312 11597.9248
0447 1420347656 11543.2676
0448 1420350000 11505.5469
0449 1420352343 11663.1152
0450 1420354687 11557.3242
0451 1420357031 11579.5752
0452 1420359375 11722.2773
0453 1420361718 11703.5449
0454 1420364062 11494.0088
0455 1420366406 11444.9668
0456 1420368750 11648.5225
0457 1420371093 11622.3291
0458 1420373437 11633.6768
0459 1420375781 11702.4697
0460 1420378125 11642.1533
0461 1420380468 11707.7783
0462 1420382812 11852.0791
0463 1420385156 11725.0527
0464 1420387500 11887.9961
0465 1420389843 11871.7979
0466 1420392187 11958.3506
0467 1420394531 11869.6406
0468 1420396875 11871.0605
0469 1420399218 11994.1719
0470 1420401562 11795.2246
0471 1420403906 11947.5146
0472 1420406250 12100.0420
0473 1420408593 12091.9609
0474 1420410937 11984.4141
0475 1420413281 12167.9688
0476 1420415625 12229.7666
0477 1420417968 12079.5439
0478 1420420312 12147.2959
0479 1420422656 12162.6025
0480 1420425000 12103.9756
0481 1420427343 12259.5186
0482 1420429687 12208.1992
0483 1420432031 12133.6982
0484 1420434375 12116.6816
0485 1420436718 12081.0957
0486 1420439062 12226.6875
0487 1420441406 12234.3252
0488 1420443750 12473.5244
0489 1420446093 12300.0557
0490 1420448437 12338.6074
0491 1420450781 12241.1406
0492 1420453125 12091.0146
0493 1420455468 12140.7881
0494 1420457812 12291.7588
0495 1420460156 12135.8730
0496 1420462500 12140.3496
0497 1420464843 12126.0967
0498 1420467187 12045.3994
0499 1420469531 12022.5781
0500 1420471875 12050.6074
0501 1420474218 12075.9746
0502 1420476562 12106.5156
0503 1420478906 12159.2783
0504 1420481250 12278.3223
0505 1420483593 12151.1484
0506 1420485937 11930.6035
0507 1420488281 12161.9775
0508 1420490625 12277.2598
0509 1420492968 11895.8604
0510 1420495312 11933.8447
0511 1420497656 12043.6582
0512 1420500000 11940.9863
0513 1420502343 11953.8594
0514 1420504687 12072.9346
0515 1420507031 11979.6846
0516 1420509375 12006.4629
0517 1420511718 11968.2607
0518 1420514062 11926.7959
0519 1420516406 11931.2441
0520 1420518750 11964.0244
0521 1420521093 11925.4951
0522 1420523437 11912.5264
0523 1420525781 11845.9561
0524 1420528125 11905.1816
0525 1420530468 11786.1895
0526 1420532812 11854.7236
0527 1420535156 11849.8154
0528 1420537500 11784.3994
0529 1420539843 11834.6338
0530 1420542187 11741.5400
0531 1420544531 11673.0596
0532 1420546875 11470.5293
0533 1420549218 11594.0947
0534 1420551562 11691.3428
0535 1420553906 11505.5322
0536 1420556250 11518.1709
0537 1420558593 11683.7910
0538 1420560937 11491.1729
0539 1420563281 11430.6465
0540 1420565625 11625.1152
0541 1420567968 11568.0742
0542 1420570312 11643.0439
0543 1420572656 11556.0312
0544 1420575000 11519.9834
0545 1420577343 11372.4961
0546 1420579687 11454.9980
0547 1420582031 11590.9561
0548 1420584375 11518.7939
0549 1420586718 11430.2695
0550 1420589062 11396.7227
0551 1420591406 11333.1338
0552 1420593750 11144.7246
0553 1420596093 11493.0654
0554 1420598437 11200.7656
0555 1420600781 11161.1572
0556 1420603125 11210.4941
0557 1420605468 11359.6025
0558 1420607812 11222.3457
0559 1420610156 11201.0264
0560 1420612500 11238.5977
0561 1420614843 11295.9834
0562 1420617187 11198.2520
0563 1420619531 11151.9736
0564 1420621875 11153.3242
0565 1420624218 10994.9502
0566 1420626562 11143.4307
0567 1420628906 11169.4648
0568 1420631250 11038.1338
0569 1420633593 11151.2451
0570 1420635937 11016.2891
0571 1420638281 10870.2715
0572 1420640625 10890.2510
0573 1420642968 11067.6230
0574 1420645312 11106.3389
0575 1420647656 11053.0732
0576 1420650000 10997.5264
0577 1420652343 10928.7979
0578 1420654687 10863.3291
0579 1420657031 10950.4287
0580 1420659375 10871.9961
0581 1420661718 10800.5713
0582 1420664062 10848.6367
0583 1420666406 10905.3066
0584 1420668750 10699.8623
0585 1420671093 10906.5508
0586 1420673437 10892.6445
0587 1420675781 10728.7725
0588 1420678125 10630.3848
0589 1420680468 10757.5654
0590 1420682812 10579.6064
0591 1420685156 10750.9932
0592 1420687500 10769.1035
0593 1420689843 10590.2979
0594 1420692187 10752.6045
0595 1420694531 10647.7559
0596 1420696875 10714.8184
0597 1420699218 10555.8584
0598 1420701562 10629.7490
0599 1420703906 10653.2031
0600 1420706250 10569.3584
0601 1420708593 10630.5938
0602 1420710937 10784.7998
0603 1420713281 10426.7295
0604 1420715625 10463.5449
0605 1420717968 10454.2266
0606 1420720312 10328.8799
0607 1420722656 10463.5293
0608 1420725000 10461.3633
0609 1420727343 10536.1543
0610 1420729687 10382.0127
0611 1420732031 10308.8447
0612 1420734375 10431.5244
0613 1420736718 10252.9160
0614 1420739062 10193.9277
0615 1420741406 10392.0088
0616 1420743750 10261.6201
0617 1420746093 10218.4004
0618 1420748437 10280.5625
0619 1420750781 10165.7031
0620 1420753125 10144.1924
0621 1420755468 10195.6279
0622 1420757812 10179.1113
0623 1420760156 10168.3838
0624 1420762500 10093.4092
0625 1420764843 10150.0732
0626 1420767187 10137.2930
0627 1420769531 10177.3848
0628 1420771875 10204.5459
0629 1420774218 10165.9004
0630 1420776562 9997.3730
0631 1420778906 10201.9014
0632 1420781250 10057.0781
0633 1420783593 9884.7744
0634 1420785937 10060.3086
0635 1420788281 10028.3887
0636 1420790625 9938.1172
0637 1420792968 10043.4619
0638 1420795312 9929.5781
0639 1420797656 9940.7998
0640 1420800000 9923.4199
0641 1420802343 9997.5029
0642 1420804687 9984.5176
0643 1420807031 9933.8232
0644 1420809375 9905.1250
0645 1420811718 9888.2168
0646 1420814062 9859.6064
0647 1420816406 9861.1152
0648 1420818750 9842.0234
0649 1420821093 9849.5000
0650 1420823437 9902.9443
0651 1420825781 9931.8779
0652 1420828125 9778.2090
0653 1420830468 9794.7344
0654 1420832812 9901.1475
0655 1420835156 9769.3418
0656 1420837500 9853.2881
0657 1420839843 9710.2402
0658 1420842187 9642.6455
0659 1420844531 9674.3848
0660 1420846875 9838.2070
0661 1420849218 9765.0439
0662 1420851562 9679.2822
0663 1420853906 9783.8184
0664 1420856250 9757.0459
0665 1420858593 9743.4111
0666 1420860937 9655.5889
0667 1420863281 9806.5732
0668 1420865625 9681.7764
0669 1420867968 9655.0586
0670 1420870312 9788.9180
0671 1420872656 9596.4492
0672 1420875000 9611.8818
0673 1420877343 9638.8770
0674 1420879687 9642.3662
0675 1420882031 9610.8398
0676 1420884375 9667.1006
0677 1420886718 9709.1484
0678 1420889062 9611.1504
0679 1420891406 9636.8525
0680 1420893750 9646.4131
0681 1420896093 9637.1611
0682 1420898437 9602.5332
0683 1420900781 9734.4385
0684 1420903125 9688.4541
0685 1420905468 9613.1807
0686 1420907812 9713.6729
0687 1420910156 9525.2188
0688 1420912500 9529.2070
0689 1420914843 9622.4287
0690 1420917187 9744.4268
0691 1420919531 9629.7168
0692 1420921875 9529.3818
0693 1420924218 9536.0156
0694 1420926562 9492.7754
0695 1420928906 9474.0361
0696 1420931250 9691.6084
0697 1420933593 9617.5771
0698 1420935937 9670.0469
0699 1420938281 9639.9160
0700 1420940625 9585.3281
0701 1420942968 9528.8125
0702 1420945312 9563.4277
0703 1420947656 9598.2266
0704 1420950000 9650.4912
0705 1420952343 9552.5537
0706 1420954687 9643.0430
0707 1420957031 9553.7090
0708 1420959375 9635.9561
0709 1420961718 9515.6328
0710 1420964062 9602.8574
0711 1420966406 9634.2461
0712 1420968750 9731.7510
0713 1420971093 9649.6709
0714 1420973437 9517.6221
0715 1420975781 9715.2900
0716 1420978125 9731.2090
0717 1420980468 9706.7363
0718 1420982812 9519.8164
0719 1420985156 9633.9121
0720 1420987500 9603.7646
0721 1420989843 9576.9707
0722 1420992187 9675.5732
0723 1420994531 9609.5479
0724 1420996875 9645.4785
0725 1420999218 9621.8887
0726 1421001562 9645.7568
0727 1421003906 9707.3799
0728 1421006250 9661.7588
0729 1421008593 9686.8945
0730 1421010937 9588.1299
0731 1421013281 9780.5225
0732 1421015625 9847.8271
0733 1421017968 9781.4512
0734 1421020312 9629.8506
0735 1421022656 9660.3877
0736 1421025000 9677.1885
0737 1421027343 9821.9609
0738 1421029687 9786.0703
0739 1421032031 9857.9590
0740 1421034375 9786.5273
0741 1421036718 9714.5156
0742 1421039062 9987.2441
0743 1421041406 9912.1797
0744 1421043750 9872.8994
0745 1421046093 10081.3105
0746 1421048437 9892.8311
0747 1421050781 9952.8467
0748 1421053125 10130.9619
0749 1421055468 9937.9277
0750 1421057812 9978.8066
0751 1421060156 10015.7861
0752 1421062500 9916.4854
0753 1421064843 9876.8623
0754 1421067187 9882.9424
0755 1421069531 10049.6484
0756 1421071875 10045.1035
0757 1421074218 10056.2539
0758 1421076562 10068.7598
0759 1421078906 9996.6621
0760 1421081250 10109.2422
0761 1421083593 10079.5283
0762 1421085937 10068.1133
0763 1421088281 10062.5176
0764 1421090625 10181.0479
0765 1421092968 10070.7627
0766 1421095312 10024.7598
0767 1421097656 10089.5586
0768 1421100000 10089.4492
0769 1421102343 9996.4609
0770 1421104687 10036.8369
0771 1421107031 10228.0117
0772 1421109375 10191.9590
0773 1421111718 10143.0479
0774 1421114062 10345.9482
0775 1421116406 10286.5195
0776 1421118750 10388.2607
0777 1421121093 10435.9863
0778 1421123437 10317.2363
0779 1421125781 10107.4473
0780 1421128125 10281.9287
0781 1421130468 10313.4160
0782 1421132812 10227.9844
0783 1421135156 10374.8643
0784 1421137500 10325.7920
0785 1421139843 10258.8809
0786 1421142187 10347.0010
0787 1421144531 10425.7021
0788 1421146875 10231.1738
0789 1421149218 10317.0234
0790 1421151562 10477.8799
0791 1421153906 10428.0527
0792 1421156250 10264.6748
0793 1421158593 10398.2695
0794 1421160937 10401.1875
0795 1421163281 10267.2021
0796 1421165625 10334.6729
0797 1421167968 10448.2334
0798 1421170312 10421.2080
0799 1421172656 10390.4639
0800 1421175000 10391.1172
0801 1421177343 10435.9043
0802 1421179687 10441.7305
0803 1421182031 10388.4336
0804 1421184375 10507.8477
0805 1421186718 10535.9482
0806 1421189062 10495.6621
0807 1421191406 10591.5166
0808 1421193750 10403.6436
0809 1421196093 10434.9492
0810 1421198437 10711.5781
0811 1421200781 10572.5391
0812 1421203125 10570.7842
0813 1421205468 10574.6416
0814 1421207812 10452.5020
0815 1421210156 10407.3965
0816 1421212500 10530.9434
0817 1421214843 10485.5508
0818 1421217187 10411.8281
0819 1421219531 10491.3584
0820 1421221875 10477.2773
0821 1421224218 10485.9590
0822 1421226562 10427.7090
0823 1421228906 10532.1191
0824 1421231250 10491.6338
0825 1421233593 10542.0029
0826 1421235937 10724.0723
0827 1421238281 10488.8447
0828 1421240625 10539.2705
0829 1421242968 10695.8164
0830 1421245312 10423.0254
0831 1421247656 10440.7109
0832 1421250000 10562.3330
0833 1421252343 10455.7842
0834 1421254687 10463.0078
0835 1421257031 10291.4014
0836 1421259375 10402.2549
0837 1421261718 10514.6904
0838 1421264062 10478.2627
0839 1421266406 10564.5322
0840 1421268750 10449.3271
0841 1421271093 10354.9502
0842 1421273437 10401.6660
0843 1421275781 10288.2051
0844 1421278125 10231.1055
0845 1421280468 10450.0459
0846 1421282812 10334.7920
0847 1421285156 10267.4863
0848 1421287500 10282.8008
0849 1421289843 10316.5088
0850 1421292187 10320.7002
0851 1421294531 10328.1533
0852 1421296875 10358.2832
0853 1421299218 10209.2803
0854 1421301562 10177.2666
0855 1421303906 10202.3750
0856 1421306250 10142.4297
0857 1421308593 10154.6182
0858 1421310937 10247.0713
0859 1421313281 10220.2666
0860 1421315625 10044.9404
0861 1421317968 10192.9727
0862 1421320312 10155.5264
0863 1421322656 10012.1797
0864 1421325000 10040.4639
0865 1421327343 9985.6768
0866 1421329687 9906.7891
0867 1421332031 9821.0615
0868 1421334375 10027.2412
0869 1421336718 9774.6846
0870 1421339062 9797.1465
0871 1421341406 9896.4609
0872 1421343750 9854.6729
0873 1421346093 9654.3936
0874 1421348437 9656.4570
0875 1421350781 9644.6172
0876 1421353125 9482.2207
0877 1421355468 9610.3818
0878 1421357812 9788.8818
0879 1421360156 9681.1631
0880 1421362500 9641.5879
0881 1421364843 9590.6543
0882 1421367187 9565.2520
0883 1421369531 9493.9502
0884 1421371875 9469.4941
0885 1421374218 9475.6162
0886 1421376562 9488.0996
0887 1421378906 9352.3555
0888 1421381250 9225.5830
0889 1421383593 9213.8447
0890 1421385937 9161.0986
0891 1421388281 9291.4316
0892 1421390625 9204.7891
0893 1421392968 9178.6562
0894 1421395312 9076.8223
0895 1421397656 8962.0811
0896 1421400000 8985.7695
0897 1421402343 8950.1895
0898 1421404687 8922.6240
0899 1421407031 8848.5908
0900 1421409375 8792.0693
0901 1421411718 8753.1689
0902 1421414062 8653.0244
0903 1421416406 8687.9619
0904 1421418750 8742.7588
0905 1421421093 8682.5283
0906 1421423437 8563.2910
0907 1421425781 8646.5234
0908 1421428125 8420.1201
0909 1421430468 8346.8242
0910 1421432812 8396.1191
0911 1421435156 8344.3672
0912 1421437500 8305.3125
0913 1421439843 8301.0625
0914 1421442187 8155.0386
0915 1421444531 8108.2061
0916 1421446875 8040.9668
0917 1421449218 7935.8384
0918 1421451562 7938.2358
0919 1421453906 7877.1167
0920 1421456250 8018.8594
0921 1421458593 7947.6475
0922 1421460937 7771.9448
0923 1421463281 7659.2920
0924 1421465625 7705.1064
0925 1421467968 7661.4775
0926 1421470312 7633.9443
0927 1421472656 7494.3262
0928 1421475000 7420.7969
0929 1421477343 7411.8169
0930 1421479687 7351.1377
0931 1421482031 7282.1465
0932 1421484375 7301.4126
0933 1421486718 7274.9800
0934 1421489062 7214.2266
0935 1421491406 7126.3989
0936 1421493750 7125.7661
0937 1421496093 7021.8042
0938 1421498437 6936.9062
0939 1421500781 6986.4028
0940 1421503125 6933.0239
0941 1421505468 6778.8931
0942 1421507812 6735.3945
0943 1421510156 6720.0469
0944 1421512500 6622.2192
0945 1421514843 6612.5259
0946 1421517187 6614.9419
0947 1421519531 6513.9424
0948 1421521875 6435.6050
0949 1421524218 6422.9712
0950 1421526562 6374.2002
0951 1421528906 6198.6646
0952 1421531250 6167.7041
0953 1421533593 6254.1738
0954 1421535937 6069.1606
0955 1421538281 6043.2861
0956 1421540625 6005.7134
0957 1421542968 5918.7705
0958 1421545312 5906.2227
0959 1421547656 5920.0894
0960 1421550000 5899.8535
0961 1421552343 5816.1177
0962 1421554687 5732.2729
0963 1421557031 5706.1855
0964 1421559375 5657.2310
0965 1421561718 5562.2402
0966 1421564062 5593.3477
0967 1421566406 5495.4971
0968 1421568750 5421.4771
0969 1421571093 5396.6592
0970 1421573437 5268.6851
0971 1421575781 5305.2036
0972 1421578125 5303.9492
0973 1421580468 5178.0874
0974 1421582812 5130.4160
0975 1421585156 5081.4756
0976 1421587500 5068.9907
0977 1421589843 5017.8379
0978 1421592187 4961.7710
0979 1421594531 4913.6196
0980 1421596875 4861.4517
0981 1421599218 4816.1821
0982 1421601562 4794.3696
0983 1421603906 4760.1587
0984 1421606250 4703.1836
0985 1421608593 4703.7056
0986 1421610937 4670.8521
0987 1421613281 4590.3984
0988 1421615625 4550.9517
0989 1421617968 4487.9185
0990 1421620312 4451.7065
0991 1421622656 4426.8848
0992 1421625000 4440.0093
0993 1421627343 4374.8486
0994 1421629687 4331.5366
0995 1421632031 4293.0679
0996 1421634375 4208.0620
0997 1421636718 4180.3799
0998 1421639062 4159.0166
0999 1421641406 4145.6118
1000 1421643750 4078.9180
1001 1421646093 4091.2522
1002 1421648437 4073.8740
1003 1421650781 4024.8499
1004 1421653125 3957.5762
1005 1421655468 3924.6548
1006 1421657812 3887.7742
1007 1421660156 3889.8870
1008 1421662500 3844.7668
1009 1421664843 3822.8977
1010 1421667187 3751.6189
1011 1421669531 3728.3298
1012 1421671875 3751.9185
1013 1421674218 3716.1978
1014 1421676562 3719.5664
1015 1421678906 3681.0366
1016 1421681250 3621.6726
1017 1421683593 3590.9287
1018 1421685937 3602.1379
1019 1421688281 3500.4761
1020 1421690625 3526.5544
1021 1421692968 3519.9685
1022 1421695312 3443.9954
1023 1421697656 3436.3123
