# File: 20-05-29T170506.ast
# NOTEA     = None Attached.  RTLSDR Dongle Test
# NOTEB     = Spectral Integration
# OBSERVER  = Science Aficionado
# DEVICE    = rtl=0,bias=1
# DATADIR   = ../data/
# SITE      = Small Metal Horn - NeSDR Test
# CITY      = Green Bank
# REGION    = West Virginia
# COUNTRY   = US
# TELTYPE   = Bubble Wrap  Horn
# FRAME     = TOPO
# GAIN1     = 40.0
# GAIN2     = 11.0
# GAIN3     = 11.0
# GAIN4     = 0.0
# Count     = 2500
# CenterFreq= 1420000000.0
# Bandwidth = 3000000.0
# Duration  = 21.605472
# DeltaX    = 5859.375
# TSYS      = 200.0
# TRX       = 100.0
# TRMS      = 2.0
# TINT      = 1.0
# KPERC     = 100.0
# GAINFACT  = 1.0
# BUNIT     = Counts
# NCHAN     = 1024
# NSPEC     = 1
# NTIME     = 0
# NSAMPLES  = 0
# EPEAK     = 4.10875183718
# ERMS      = 0.995973393526
# EMJD      = 58568.808999981004 
# REFCHAN   = 512.0
# REFSAMPL  = 256.0
# NAVE      = 50
# NMEDIAN   = 1024
# Fft_rate  = 5000
# UTC       = 2020-05-29 17:05:06.393671
# SECONDS   =       0.0000000000 
# LST       = 04:16:28.160
# AZ        = 180.0
# EL        = 90.0
# TELLON    = -79:50:22.920
# TELLAT    = +38:25:59.160
# RA        = 04:13:47.020
# DEC       = +38:20:04.800
# GALLON    = 160:48:31.50
# GALLAT    = -09:13:51.00
# ALT_SUN   = +73:08:35.4
# AZ_SUN    = +170:32:13.7
# ETAA      = 0.8
# ETAB      = 0.99
# POLANGLE  = 0.0
# TELSIZEAM = 1.0
# TELSIZEBM = 1.0
# AST_VERS  = 05.01
0000 1418501464 15.0260
0001 1418504394 15.0480
0002 1418507324 14.9684
0003 1418510253 14.9731
0004 1418513183 15.1753
0005 1418516113 14.9657
0006 1418519042 15.0725
0007 1418521972 15.3419
0008 1418524902 15.1631
0009 1418527832 15.3474
0010 1418530761 15.2675
0011 1418533691 15.0488
0012 1418536621 15.2571
0013 1418539550 15.4707
0014 1418542480 15.3718
0015 1418545410 15.6838
0016 1418548339 15.7148
0017 1418551269 15.9465
0018 1418554199 15.6652
0019 1418557128 16.0096
0020 1418560058 16.0246
0021 1418562988 16.1783
0022 1418565917 16.2296
0023 1418568847 16.6353
0024 1418571777 16.7553
0025 1418574707 16.6908
0026 1418577636 17.0927
0027 1418580566 17.3304
0028 1418583496 17.3149
0029 1418586425 17.5240
0030 1418589355 17.9458
0031 1418592285 18.3003
0032 1418595214 18.2247
0033 1418598144 18.2451
0034 1418601074 18.6637
0035 1418604003 19.0765
0036 1418606933 19.0775
0037 1418609863 19.8324
0038 1418612792 19.8316
0039 1418615722 19.8118
0040 1418618652 20.2988
0041 1418621582 20.5905
0042 1418624511 20.7751
0043 1418627441 21.0928
0044 1418630371 21.2915
0045 1418633300 21.6078
0046 1418636230 21.9387
0047 1418639160 22.3248
0048 1418642089 22.5177
0049 1418645019 23.2522
0050 1418647949 23.4356
0051 1418650878 23.6439
0052 1418653808 24.1330
0053 1418656738 24.3265
0054 1418659667 24.8215
0055 1418662597 25.2006
0056 1418665527 25.5746
0057 1418668457 25.7079
0058 1418671386 26.1190
0059 1418674316 26.7609
0060 1418677246 27.2440
0061 1418680175 27.7509
0062 1418683105 28.1969
0063 1418686035 28.0814
0064 1418688964 28.6958
0065 1418691894 29.4506
0066 1418694824 29.7362
0067 1418697753 29.9562
0068 1418700683 30.4385
0069 1418703613 30.9411
0070 1418706542 31.2088
0071 1418709472 31.9169
0072 1418712402 32.4232
0073 1418715332 33.1215
0074 1418718261 33.4722
0075 1418721191 33.7731
0076 1418724121 34.3781
0077 1418727050 34.9578
0078 1418729980 35.5038
0079 1418732910 35.5921
0080 1418735839 36.4794
0081 1418738769 36.6261
0082 1418741699 37.3700
0083 1418744628 37.7842
0084 1418747558 38.5710
0085 1418750488 38.7265
0086 1418753417 39.7562
0087 1418756347 39.8784
0088 1418759277 41.0485
0089 1418762207 40.9313
0090 1418765136 41.3600
0091 1418768066 41.9173
0092 1418770996 42.5523
0093 1418773925 43.3525
0094 1418776855 43.7313
0095 1418779785 43.7736
0096 1418782714 45.3068
0097 1418785644 45.3514
0098 1418788574 45.3922
0099 1418791503 46.7025
0100 1418794433 46.3646
0101 1418797363 47.4478
0102 1418800292 48.5316
0103 1418803222 48.4708
0104 1418806152 49.1747
0105 1418809082 49.6904
0106 1418812011 50.1778
0107 1418814941 51.1259
0108 1418817871 51.8689
0109 1418820800 52.6091
0110 1418823730 52.8967
0111 1418826660 53.1695
0112 1418829589 53.9871
0113 1418832519 54.4616
0114 1418835449 54.9401
0115 1418838378 54.8773
0116 1418841308 56.3821
0117 1418844238 56.1130
0118 1418847167 56.9946
0119 1418850097 57.7202
0120 1418853027 58.7915
0121 1418855957 58.9883
0122 1418858886 59.2923
0123 1418861816 60.6635
0124 1418864746 60.2716
0125 1418867675 62.1206
0126 1418870605 61.8435
0127 1418873535 62.4112
0128 1418876464 63.3346
0129 1418879394 63.3864
0130 1418882324 63.5263
0131 1418885253 63.8621
0132 1418888183 65.1455
0133 1418891113 65.8536
0134 1418894042 66.4785
0135 1418896972 66.9748
0136 1418899902 66.9945
0137 1418902832 67.7471
0138 1418905761 68.7814
0139 1418908691 69.7920
0140 1418911621 69.3927
0141 1418914550 69.6783
0142 1418917480 71.0678
0143 1418920410 71.9687
0144 1418923339 72.1840
0145 1418926269 72.6741
0146 1418929199 72.5723
0147 1418932128 73.4485
0148 1418935058 73.8749
0149 1418937988 75.2755
0150 1418940917 75.3114
0151 1418943847 75.3505
0152 1418946777 75.7486
0153 1418949707 76.4223
0154 1418952636 77.4685
0155 1418955566 77.3022
0156 1418958496 78.7745
0157 1418961425 80.0489
0158 1418964355 78.6304
0159 1418967285 80.0344
0160 1418970214 81.6731
0161 1418973144 80.6694
0162 1418976074 80.8383
0163 1418979003 81.9386
0164 1418981933 82.7732
0165 1418984863 82.6613
0166 1418987792 83.1936
0167 1418990722 82.4344
0168 1418993652 83.6245
0169 1418996582 84.1835
0170 1418999511 85.3626
0171 1419002441 84.7797
0172 1419005371 86.4687
0173 1419008300 85.7939
0174 1419011230 85.9611
0175 1419014160 86.1590
0176 1419017089 86.8657
0177 1419020019 87.3034
0178 1419022949 87.3279
0179 1419025878 88.2661
0180 1419028808 87.9270
0181 1419031738 89.8759
0182 1419034667 88.5831
0183 1419037597 89.7175
0184 1419040527 90.0153
0185 1419043457 91.9510
0186 1419046386 91.7140
0187 1419049316 91.3549
0188 1419052246 91.2210
0189 1419055175 92.0272
0190 1419058105 92.8254
0191 1419061035 92.4376
0192 1419063964 92.5940
0193 1419066894 93.2242
0194 1419069824 93.4154
0195 1419072753 95.3090
0196 1419075683 95.3607
0197 1419078613 94.4222
0198 1419081542 96.1036
0199 1419084472 94.2374
0200 1419087402 96.1472
0201 1419090332 95.8072
0202 1419093261 96.5935
0203 1419096191 97.2329
0204 1419099121 97.6219
0205 1419102050 97.2333
0206 1419104980 97.4600
0207 1419107910 98.2082
0208 1419110839 98.2473
0209 1419113769 98.0754
0210 1419116699 98.9789
0211 1419119628 99.4895
0212 1419122558 99.8417
0213 1419125488 100.0059
0214 1419128417 99.1348
0215 1419131347 98.6760
0216 1419134277 100.0679
0217 1419137207 100.5784
0218 1419140136 101.5352
0219 1419143066 101.6048
0220 1419145996 101.1277
0221 1419148925 102.4253
0222 1419151855 102.0662
0223 1419154785 102.8353
0224 1419157714 102.4393
0225 1419160644 100.8938
0226 1419163574 101.5170
0227 1419166503 101.4824
0228 1419169433 101.6243
0229 1419172363 103.0287
0230 1419175292 101.0720
0231 1419178222 102.6190
0232 1419181152 101.9085
0233 1419184082 102.1354
0234 1419187011 102.5282
0235 1419189941 103.9288
0236 1419192871 102.8464
0237 1419195800 103.4431
0238 1419198730 103.6153
0239 1419201660 104.1782
0240 1419204589 102.8895
0241 1419207519 103.6536
0242 1419210449 104.3484
0243 1419213378 105.3765
0244 1419216308 104.1014
0245 1419219238 105.2275
0246 1419222167 105.1224
0247 1419225097 105.4239
0248 1419228027 104.4769
0249 1419230957 105.4933
0250 1419233886 105.0896
0251 1419236816 104.8935
0252 1419239746 106.2108
0253 1419242675 104.7024
0254 1419245605 105.5059
0255 1419248535 106.1035
0256 1419251464 107.1588
0257 1419254394 107.1228
0258 1419257324 106.0522
0259 1419260253 105.9234
0260 1419263183 105.5783
0261 1419266113 106.4351
0262 1419269042 106.5134
0263 1419271972 106.0886
0264 1419274902 105.3914
0265 1419277832 107.6069
0266 1419280761 106.3117
0267 1419283691 106.1383
0268 1419286621 106.1457
0269 1419289550 105.9892
0270 1419292480 107.3327
0271 1419295410 106.2194
0272 1419298339 107.9212
0273 1419301269 106.6935
0274 1419304199 106.3338
0275 1419307128 108.3333
0276 1419310058 107.9570
0277 1419312988 108.0199
0278 1419315917 107.8855
0279 1419318847 106.7528
0280 1419321777 108.1730
0281 1419324707 107.7762
0282 1419327636 108.2904
0283 1419330566 107.3470
0284 1419333496 107.5094
0285 1419336425 109.1709
0286 1419339355 109.3494
0287 1419342285 107.6599
0288 1419345214 108.6356
0289 1419348144 108.1072
0290 1419351074 109.1286
0291 1419354003 109.5952
0292 1419356933 108.3432
0293 1419359863 109.7383
0294 1419362792 108.4162
0295 1419365722 109.5402
0296 1419368652 109.1661
0297 1419371582 109.4240
0298 1419374511 109.4110
0299 1419377441 108.2488
0300 1419380371 108.5250
0301 1419383300 108.3140
0302 1419386230 107.7113
0303 1419389160 108.4223
0304 1419392089 108.9653
0305 1419395019 109.1927
0306 1419397949 110.6477
0307 1419400878 110.1537
0308 1419403808 110.1174
0309 1419406738 109.9349
0310 1419409667 108.9235
0311 1419412597 110.6132
0312 1419415527 110.6891
0313 1419418457 111.2834
0314 1419421386 111.2375
0315 1419424316 111.5098
0316 1419427246 109.1419
0317 1419430175 112.2470
0318 1419433105 110.8394
0319 1419436035 110.6328
0320 1419438964 111.5586
0321 1419441894 111.2898
0322 1419444824 111.2196
0323 1419447753 110.2869
0324 1419450683 111.9282
0325 1419453613 111.4150
0326 1419456542 114.6004
0327 1419459472 111.9376
0328 1419462402 111.2012
0329 1419465332 112.4962
0330 1419468261 113.3928
0331 1419471191 112.7099
0332 1419474121 111.8955
0333 1419477050 113.8465
0334 1419479980 113.6756
0335 1419482910 113.7283
0336 1419485839 114.4028
0337 1419488769 113.2153
0338 1419491699 113.6688
0339 1419494628 113.1061
0340 1419497558 114.5161
0341 1419500488 114.1226
0342 1419503417 113.9087
0343 1419506347 114.6812
0344 1419509277 114.8630
0345 1419512207 114.7522
0346 1419515136 114.7072
0347 1419518066 113.6695
0348 1419520996 114.1889
0349 1419523925 114.3586
0350 1419526855 115.9194
0351 1419529785 115.5452
0352 1419532714 116.7474
0353 1419535644 115.9224
0354 1419538574 116.8910
0355 1419541503 116.3539
0356 1419544433 115.9166
0357 1419547363 115.8206
0358 1419550292 116.7020
0359 1419553222 115.8245
0360 1419556152 117.3931
0361 1419559082 117.6877
0362 1419562011 116.6257
0363 1419564941 117.6649
0364 1419567871 118.7928
0365 1419570800 118.4112
0366 1419573730 118.0468
0367 1419576660 119.8999
0368 1419579589 118.1871
0369 1419582519 119.6300
0370 1419585449 118.9570
0371 1419588378 120.1891
0372 1419591308 118.4743
0373 1419594238 119.4762
0374 1419597167 121.9169
0375 1419600097 121.7526
0376 1419603027 118.4992
0377 1419605957 120.6841
0378 1419608886 120.0220
0379 1419611816 121.7858
0380 1419614746 121.5018
0381 1419617675 121.3129
0382 1419620605 120.9312
0383 1419623535 120.1463
0384 1419626464 123.3520
0385 1419629394 122.1553
0386 1419632324 123.0209
0387 1419635253 123.2602
0388 1419638183 124.4759
0389 1419641113 122.2716
0390 1419644042 124.2466
0391 1419646972 125.3659
0392 1419649902 124.9220
0393 1419652832 125.0927
0394 1419655761 128.1095
0395 1419658691 128.3178
0396 1419661621 125.5414
0397 1419664550 124.5742
0398 1419667480 127.1604
0399 1419670410 125.2339
0400 1419673339 126.2432
0401 1419676269 127.1496
0402 1419679199 127.7969
0403 1419682128 125.8108
0404 1419685058 128.7568
0405 1419687988 127.6132
0406 1419690917 128.7023
0407 1419693847 129.5565
0408 1419696777 128.2607
0409 1419699707 128.8768
0410 1419702636 129.0913
0411 1419705566 129.2919
0412 1419708496 128.2400
0413 1419711425 127.8196
0414 1419714355 130.6831
0415 1419717285 130.8552
0416 1419720214 131.0202
0417 1419723144 127.7028
0418 1419726074 131.1528
0419 1419729003 131.0147
0420 1419731933 133.0033
0421 1419734863 132.0812
0422 1419737792 130.2873
0423 1419740722 130.7925
0424 1419743652 131.4787
0425 1419746582 133.2548
0426 1419749511 131.2723
0427 1419752441 133.5636
0428 1419755371 134.7996
0429 1419758300 132.5340
0430 1419761230 133.6143
0431 1419764160 135.2834
0432 1419767089 134.6672
0433 1419770019 134.7195
0434 1419772949 133.8880
0435 1419775878 135.9354
0436 1419778808 135.3484
0437 1419781738 134.4187
0438 1419784667 136.5041
0439 1419787597 138.3190
0440 1419790527 137.0961
0441 1419793457 138.4342
0442 1419796386 137.0384
0443 1419799316 138.3970
0444 1419802246 138.3437
0445 1419805175 138.4195
0446 1419808105 139.5055
0447 1419811035 139.5834
0448 1419813964 137.3111
0449 1419816894 137.4918
0450 1419819824 139.2863
0451 1419822753 141.1805
0452 1419825683 139.5315
0453 1419828613 140.6933
0454 1419831542 141.3484
0455 1419834472 139.9957
0456 1419837402 139.5839
0457 1419840332 141.5019
0458 1419843261 140.2611
0459 1419846191 143.2390
0460 1419849121 140.7187
0461 1419852050 144.2784
0462 1419854980 144.0336
0463 1419857910 143.8568
0464 1419860839 143.0805
0465 1419863769 142.9272
0466 1419866699 141.8160
0467 1419869628 143.5396
0468 1419872558 145.3078
0469 1419875488 144.1027
0470 1419878417 142.6388
0471 1419881347 145.0646
0472 1419884277 143.6220
0473 1419887207 145.1814
0474 1419890136 145.9027
0475 1419893066 145.5737
0476 1419895996 147.0324
0477 1419898925 145.5294
0478 1419901855 145.5995
0479 1419904785 147.6499
0480 1419907714 148.2030
0481 1419910644 145.6956
0482 1419913574 148.6968
0483 1419916503 148.5003
0484 1419919433 146.0202
0485 1419922363 148.7457
0486 1419925292 149.7530
0487 1419928222 149.7352
0488 1419931152 148.4346
0489 1419934082 148.1001
0490 1419937011 147.8483
0491 1419939941 150.4872
0492 1419942871 148.0911
0493 1419945800 148.1171
0494 1419948730 148.8760
0495 1419951660 151.0026
0496 1419954589 148.5664
0497 1419957519 151.2370
0498 1419960449 150.7661
0499 1419963378 152.3436
0500 1419966308 155.3968
0501 1419969238 153.4230
0502 1419972167 152.5855
0503 1419975097 153.0862
0504 1419978027 151.9277
0505 1419980957 152.7526
0506 1419983886 155.7328
0507 1419986816 158.5513
0508 1419989746 158.4017
0509 1419992675 163.2997
0510 1419995605 170.0780
0511 1419998535 196.4261
0512 1420001464 245.9570
0513 1420004394 193.7471
0514 1420007324 168.3363
0515 1420010253 161.9398
0516 1420013183 159.6194
0517 1420016113 158.4682
0518 1420019042 155.8708
0519 1420021972 154.6874
0520 1420024902 156.5290
0521 1420027832 154.9447
0522 1420030761 153.8153
0523 1420033691 152.1877
0524 1420036621 152.5254
0525 1420039550 153.3464
0526 1420042480 155.6305
0527 1420045410 152.5121
0528 1420048339 153.6851
0529 1420051269 149.6728
0530 1420054199 150.9025
0531 1420057128 152.4294
0532 1420060058 152.3960
0533 1420062988 152.6896
0534 1420065917 152.4206
0535 1420068847 152.0159
0536 1420071777 151.8534
0537 1420074707 150.8500
0538 1420077636 150.2796
0539 1420080566 151.2959
0540 1420083496 151.2351
0541 1420086425 149.4762
0542 1420089355 150.8116
0543 1420092285 150.8582
0544 1420095214 147.6176
0545 1420098144 149.0724
0546 1420101074 150.3970
0547 1420104003 149.3742
0548 1420106933 150.6232
0549 1420109863 149.3942
0550 1420112792 150.2512
0551 1420115722 149.2210
0552 1420118652 148.8475
0553 1420121582 149.1849
0554 1420124511 150.8954
0555 1420127441 148.5236
0556 1420130371 149.2786
0557 1420133300 145.7700
0558 1420136230 148.2265
0559 1420139160 148.2308
0560 1420142089 147.4659
0561 1420145019 147.9769
0562 1420147949 146.5790
0563 1420150878 147.1824
0564 1420153808 147.8620
0565 1420156738 149.7718
0566 1420159667 148.7544
0567 1420162597 148.0831
0568 1420165527 147.5589
0569 1420168457 146.6865
0570 1420171386 146.9207
0571 1420174316 146.7402
0572 1420177246 147.4175
0573 1420180175 146.0634
0574 1420183105 146.8007
0575 1420186035 148.1911
0576 1420188964 147.2055
0577 1420191894 149.0083
0578 1420194824 147.8559
0579 1420197753 149.1126
0580 1420200683 146.8829
0581 1420203613 144.8384
0582 1420206542 147.4731
0583 1420209472 148.2302
0584 1420212402 146.5894
0585 1420215332 147.7472
0586 1420218261 147.5847
0587 1420221191 148.6495
0588 1420224121 148.0004
0589 1420227050 149.9929
0590 1420229980 147.3864
0591 1420232910 147.5450
0592 1420235839 147.3774
0593 1420238769 146.9972
0594 1420241699 149.4952
0595 1420244628 148.2927
0596 1420247558 144.5258
0597 1420250488 147.4927
0598 1420253417 148.7824
0599 1420256347 149.0847
0600 1420259277 148.0802
0601 1420262207 148.9543
0602 1420265136 147.2229
0603 1420268066 148.1352
0604 1420270996 149.3272
0605 1420273925 149.1786
0606 1420276855 149.8294
0607 1420279785 148.1553
0608 1420282714 150.6678
0609 1420285644 150.4006
0610 1420288574 150.4360
0611 1420291503 151.0279
0612 1420294433 152.9632
0613 1420297363 150.3546
0614 1420300292 149.8800
0615 1420303222 150.3922
0616 1420306152 152.8271
0617 1420309082 149.5885
0618 1420312011 150.2780
0619 1420314941 152.2346
0620 1420317871 152.6653
0621 1420320800 151.5582
0622 1420323730 150.2817
0623 1420326660 152.8222
0624 1420329589 152.4363
0625 1420332519 150.7315
0626 1420335449 150.3371
0627 1420338378 151.5157
0628 1420341308 151.5665
0629 1420344238 149.5343
0630 1420347167 150.0131
0631 1420350097 151.0406
0632 1420353027 150.1198
0633 1420355957 150.3869
0634 1420358886 150.4206
0635 1420361816 147.4245
0636 1420364746 149.9773
0637 1420367675 149.7451
0638 1420370605 148.5173
0639 1420373535 146.9973
0640 1420376464 149.5558
0641 1420379394 149.4477
0642 1420382324 149.2472
0643 1420385253 147.7952
0644 1420388183 149.3904
0645 1420391113 147.1893
0646 1420394042 147.9304
0647 1420396972 148.2259
0648 1420399902 146.5662
0649 1420402832 146.3459
0650 1420405761 147.2843
0651 1420408691 149.6470
0652 1420411621 145.9705
0653 1420414550 144.4949
0654 1420417480 145.5258
0655 1420420410 144.2542
0656 1420423339 143.5144
0657 1420426269 145.1627
0658 1420429199 143.3006
0659 1420432128 141.5013
0660 1420435058 143.0762
0661 1420437988 143.9656
0662 1420440917 142.6321
0663 1420443847 140.2330
0664 1420446777 138.2594
0665 1420449707 139.4131
0666 1420452636 140.0448
0667 1420455566 139.9847
0668 1420458496 141.6148
0669 1420461425 139.4349
0670 1420464355 138.0049
0671 1420467285 137.4241
0672 1420470214 137.7389
0673 1420473144 138.0482
0674 1420476074 138.8830
0675 1420479003 137.6889
0676 1420481933 138.3898
0677 1420484863 136.8085
0678 1420487792 135.8490
0679 1420490722 134.0949
0680 1420493652 133.1827
0681 1420496582 134.9593
0682 1420499511 135.9695
0683 1420502441 134.3235
0684 1420505371 134.4671
0685 1420508300 135.2276
0686 1420511230 132.0520
0687 1420514160 133.7250
0688 1420517089 136.3296
0689 1420520019 132.7634
0690 1420522949 133.4048
0691 1420525878 133.7474
0692 1420528808 132.2513
0693 1420531738 133.1517
0694 1420534667 133.3548
0695 1420537597 132.1926
0696 1420540527 131.9617
0697 1420543457 131.9575
0698 1420546386 130.9155
0699 1420549316 131.1222
0700 1420552246 129.5092
0701 1420555175 129.6061
0702 1420558105 130.1015
0703 1420561035 128.6761
0704 1420563964 128.3615
0705 1420566894 129.3012
0706 1420569824 128.7132
0707 1420572753 127.4772
0708 1420575683 126.9907
0709 1420578613 126.1442
0710 1420581542 128.5043
0711 1420584472 127.4058
0712 1420587402 128.7124
0713 1420590332 128.4824
0714 1420593261 128.7373
0715 1420596191 126.4717
0716 1420599121 127.4407
0717 1420602050 126.3245
0718 1420604980 125.5279
0719 1420607910 128.3947
0720 1420610839 126.1005
0721 1420613769 125.8500
0722 1420616699 127.4838
0723 1420619628 124.6614
0724 1420622558 125.8750
0725 1420625488 126.7951
0726 1420628417 125.7759
0727 1420631347 127.3348
0728 1420634277 125.6999
0729 1420637207 126.1778
0730 1420640136 128.1879
0731 1420643066 126.4863
0732 1420645996 126.5209
0733 1420648925 126.2204
0734 1420651855 125.5927
0735 1420654785 127.3621
0736 1420657714 125.8801
0737 1420660644 125.7411
0738 1420663574 125.4696
0739 1420666503 123.8566
0740 1420669433 125.8180
0741 1420672363 124.5872
0742 1420675292 124.6649
0743 1420678222 126.1763
0744 1420681152 125.2286
0745 1420684082 124.6304
0746 1420687011 123.5698
0747 1420689941 123.1991
0748 1420692871 123.4802
0749 1420695800 123.8298
0750 1420698730 125.6362
0751 1420701660 124.1367
0752 1420704589 124.6620
0753 1420707519 122.5589
0754 1420710449 122.4691
0755 1420713378 125.1798
0756 1420716308 123.6696
0757 1420719238 122.8477
0758 1420722167 123.2686
0759 1420725097 122.1971
0760 1420728027 123.8810
0761 1420730957 125.5289
0762 1420733886 123.8605
0763 1420736816 123.3680
0764 1420739746 122.1147
0765 1420742675 123.0802
0766 1420745605 122.2570
0767 1420748535 122.8792
0768 1420751464 122.0272
0769 1420754394 123.0900
0770 1420757324 121.9545
0771 1420760253 123.6001
0772 1420763183 122.8149
0773 1420766113 121.3666
0774 1420769042 122.0616
0775 1420771972 122.4884
0776 1420774902 122.8817
0777 1420777832 121.8535
0778 1420780761 121.4884
0779 1420783691 122.7474
0780 1420786621 123.2285
0781 1420789550 120.8104
0782 1420792480 120.1046
0783 1420795410 120.0560
0784 1420798339 122.0206
0785 1420801269 130.0441
0786 1420804199 125.5810
0787 1420807128 120.6584
0788 1420810058 119.3764
0789 1420812988 120.2755
0790 1420815917 119.3172
0791 1420818847 119.4686
0792 1420821777 118.2212
0793 1420824707 119.7685
0794 1420827636 118.7138
0795 1420830566 119.2570
0796 1420833496 117.7425
0797 1420836425 118.6627
0798 1420839355 119.4322
0799 1420842285 119.3225
0800 1420845214 119.7809
0801 1420848144 118.3688
0802 1420851074 119.1865
0803 1420854003 117.9791
0804 1420856933 118.9114
0805 1420859863 116.4723
0806 1420862792 117.3678
0807 1420865722 117.0399
0808 1420868652 116.1508
0809 1420871582 116.8095
0810 1420874511 114.9398
0811 1420877441 116.4416
0812 1420880371 116.8925
0813 1420883300 116.6467
0814 1420886230 114.5458
0815 1420889160 115.2769
0816 1420892089 114.9404
0817 1420895019 115.3384
0818 1420897949 114.6194
0819 1420900878 115.7567
0820 1420903808 115.5726
0821 1420906738 113.7869
0822 1420909667 112.7932
0823 1420912597 111.4201
0824 1420915527 111.8358
0825 1420918457 112.1369
0826 1420921386 113.5728
0827 1420924316 112.7927
0828 1420927246 110.9044
0829 1420930175 111.0503
0830 1420933105 110.5238
0831 1420936035 110.2841
0832 1420938964 109.9059
0833 1420941894 109.9121
0834 1420944824 109.8341
0835 1420947753 108.7170
0836 1420950683 106.6081
0837 1420953613 108.5642
0838 1420956542 107.7975
0839 1420959472 107.9824
0840 1420962402 107.3354
0841 1420965332 106.9741
0842 1420968261 105.9820
0843 1420971191 104.5068
0844 1420974121 104.3127
0845 1420977050 102.3899
0846 1420979980 103.1655
0847 1420982910 104.5576
0848 1420985839 101.7653
0849 1420988769 102.4208
0850 1420991699 102.0677
0851 1420994628 102.6328
0852 1420997558 101.8353
0853 1421000488 101.7684
0854 1421003417 99.3037
0855 1421006347 100.1117
0856 1421009277 98.1781
0857 1421012207 99.2730
0858 1421015136 99.3988
0859 1421018066 98.7450
0860 1421020996 97.4374
0861 1421023925 96.6824
0862 1421026855 95.7592
0863 1421029785 95.2027
0864 1421032714 94.6442
0865 1421035644 95.7230
0866 1421038574 94.4963
0867 1421041503 93.2559
0868 1421044433 92.4665
0869 1421047363 93.1871
0870 1421050292 91.3913
0871 1421053222 92.3109
0872 1421056152 89.9526
0873 1421059082 90.6180
0874 1421062011 89.6430
0875 1421064941 88.9124
0876 1421067871 87.6656
0877 1421070800 87.2988
0878 1421073730 86.8371
0879 1421076660 85.7241
0880 1421079589 86.2666
0881 1421082519 85.6648
0882 1421085449 84.5980
0883 1421088378 83.4321
0884 1421091308 82.8200
0885 1421094238 81.2802
0886 1421097167 81.7695
0887 1421100097 81.5562
0888 1421103027 81.6021
0889 1421105957 80.0114
0890 1421108886 79.0666
0891 1421111816 77.4289
0892 1421114746 76.4711
0893 1421117675 77.6616
0894 1421120605 76.0123
0895 1421123535 76.2768
0896 1421126464 76.0058
0897 1421129394 75.3462
0898 1421132324 73.9824
0899 1421135253 72.8400
0900 1421138183 72.3993
0901 1421141113 72.6402
0902 1421144042 72.1357
0903 1421146972 70.6834
0904 1421149902 70.3651
0905 1421152832 69.5694
0906 1421155761 68.5144
0907 1421158691 67.9652
0908 1421161621 68.1646
0909 1421164550 66.3892
0910 1421167480 65.4976
0911 1421170410 64.2606
0912 1421173339 63.4807
0913 1421176269 64.0767
0914 1421179199 62.6541
0915 1421182128 61.6071
0916 1421185058 61.3714
0917 1421187988 60.6979
0918 1421190917 59.7075
0919 1421193847 59.1302
0920 1421196777 58.9985
0921 1421199707 58.8138
0922 1421202636 56.7714
0923 1421205566 56.2754
0924 1421208496 56.4165
0925 1421211425 55.0127
0926 1421214355 54.6300
0927 1421217285 54.8645
0928 1421220214 53.0974
0929 1421223144 52.7061
0930 1421226074 52.0369
0931 1421229003 51.8205
0932 1421231933 51.3528
0933 1421234863 49.9575
0934 1421237792 49.2494
0935 1421240722 48.9898
0936 1421243652 48.0718
0937 1421246582 48.2386
0938 1421249511 46.6660
0939 1421252441 45.8953
0940 1421255371 45.6975
0941 1421258300 45.1843
0942 1421261230 43.9248
0943 1421264160 42.8380
0944 1421267089 42.4051
0945 1421270019 42.0283
0946 1421272949 41.8228
0947 1421275878 41.4316
0948 1421278808 40.2374
0949 1421281738 40.2962
0950 1421284667 39.5376
0951 1421287597 38.6727
0952 1421290527 38.4531
0953 1421293457 37.7546
0954 1421296386 37.2851
0955 1421299316 36.7019
0956 1421302246 36.2368
0957 1421305175 35.6306
0958 1421308105 35.1206
0959 1421311035 34.2396
0960 1421313964 33.6137
0961 1421316894 33.1692
0962 1421319824 33.0399
0963 1421322753 32.7038
0964 1421325683 31.5392
0965 1421328613 31.1798
0966 1421331542 30.6154
0967 1421334472 30.3022
0968 1421337402 30.2538
0969 1421340332 29.4052
0970 1421343261 29.1205
0971 1421346191 28.3933
0972 1421349121 27.8042
0973 1421352050 27.7525
0974 1421354980 27.1183
0975 1421357910 26.6389
0976 1421360839 25.9281
0977 1421363769 25.9341
0978 1421366699 25.5245
0979 1421369628 25.1895
0980 1421372558 24.4355
0981 1421375488 24.2373
0982 1421378417 23.9176
0983 1421381347 23.2823
0984 1421384277 23.0551
0985 1421387207 22.8068
0986 1421390136 22.3862
0987 1421393066 21.9502
0988 1421395996 21.6511
0989 1421398925 21.2460
0990 1421401855 21.2834
0991 1421404785 20.6966
0992 1421407714 20.4537
0993 1421410644 20.3363
0994 1421413574 19.9528
0995 1421416503 19.5894
0996 1421419433 19.3460
0997 1421422363 19.1394
0998 1421425292 18.7133
0999 1421428222 18.5361
1000 1421431152 18.4793
1001 1421434082 18.1185
1002 1421437011 17.7375
1003 1421439941 17.6423
1004 1421442871 17.4687
1005 1421445800 17.1696
1006 1421448730 17.0950
1007 1421451660 17.0714
1008 1421454589 16.8500
1009 1421457519 16.6933
1010 1421460449 16.3444
1011 1421463378 16.2029
1012 1421466308 16.0039
1013 1421469238 15.9429
1014 1421472167 15.9352
1015 1421475097 15.7779
1016 1421478027 15.6811
1017 1421480957 15.7947
1018 1421483886 15.6550
1019 1421486816 15.4520
1020 1421489746 15.4351
1021 1421492675 15.3435
1022 1421495605 15.3840
1023 1421498535 15.2484
