# File: 20-05-29T170342.hot
# NOTEA     = None Attached.  RTLSDR Dongle Test
# NOTEB     = Spectral Integration
# OBSERVER  = Science Aficionado
# DEVICE    = rtl=0,bias=1
# DATADIR   = ../data/
# SITE      = None Attached.  RTLSDR Dongle Test
# CITY      = Green Bank
# REGION    = West Virginia
# COUNTRY   = US
# TELTYPE   = Bubble Wrap  Horn
# FRAME     = TOPO
# GAIN1     = 40.0
# GAIN2     = 11.0
# GAIN3     = 11.0
# GAIN4     = 0.0
# Count     = 2500
# CenterFreq= 1420000000.0
# Bandwidth = 3000000.0
# Duration  = 21.835118
# DeltaX    = 5859.375
# TSYS      = 200.0
# TRX       = 100.0
# TRMS      = 2.0
# TINT      = 1.0
# KPERC     = 100.0
# GAINFACT  = 1.0
# BUNIT     = Counts
# NCHAN     = 1024
# NSPEC     = 1
# NTIME     = 0
# NSAMPLES  = 0
# EPEAK     = 4.10875183718
# ERMS      = 0.995973393526
# EMJD      = 58568.808999981004 
# REFCHAN   = 512.0
# REFSAMPL  = 256.0
# NAVE      = 50
# NMEDIAN   = 1024
# Fft_rate  = 5000
# UTC       = 2020-05-29 17:03:42.397004
# SECONDS   =       0.0000000000 
# LST       = 04:15:03.930
# AZ        = 180.0
# EL        = -90.0
# TELLON    = -79:50:22.920
# TELLAT    = +38:25:59.160
# RA        = 16:12:19.480
# DEC       = -38:19:52.900
# GALLON    = 340:36:09.30
# GALLAT    = +09:25:55.40
# ALT_SUN   = +73:05:43.3
# AZ_SUN    = +169:25:49.1
# ETAA      = 0.8
# ETAB      = 0.99
# POLANGLE  = 0.0
# TELSIZEAM = 1.0
# TELSIZEBM = 1.0
# AST_VERS  = 05.01
0000 1418501464 58.0257
0001 1418504394 58.5502
0002 1418507324 58.2955
0003 1418510253 58.0010
0004 1418513183 58.0640
0005 1418516113 57.7409
0006 1418519042 57.7690
0007 1418521972 57.7934
0008 1418524902 57.6532
0009 1418527832 58.4057
0010 1418530761 58.5714
0011 1418533691 58.3284
0012 1418536621 58.9994
0013 1418539550 58.7622
0014 1418542480 59.4448
0015 1418545410 60.1353
0016 1418548339 60.2725
0017 1418551269 59.7328
0018 1418554199 59.9323
0019 1418557128 59.9661
0020 1418560058 60.7834
0021 1418562988 61.6682
0022 1418565917 62.1808
0023 1418568847 62.0969
0024 1418571777 63.2504
0025 1418574707 63.4613
0026 1418577636 64.2736
0027 1418580566 64.6977
0028 1418583496 66.1482
0029 1418586425 66.3202
0030 1418589355 66.6878
0031 1418592285 68.1990
0032 1418595214 69.1111
0033 1418598144 69.8399
0034 1418601074 70.9542
0035 1418604003 71.9871
0036 1418606933 72.4624
0037 1418609863 72.9366
0038 1418612792 74.5067
0039 1418615722 75.1956
0040 1418618652 75.9520
0041 1418621582 77.1279
0042 1418624511 77.4818
0043 1418627441 77.8754
0044 1418630371 81.4521
0045 1418633300 81.8663
0046 1418636230 83.4581
0047 1418639160 84.2958
0048 1418642089 85.0781
0049 1418645019 87.3234
0050 1418647949 87.4559
0051 1418650878 88.4665
0052 1418653808 89.5340
0053 1418656738 92.8313
0054 1418659667 92.4089
0055 1418662597 94.1395
0056 1418665527 95.1012
0057 1418668457 96.8719
0058 1418671386 98.8081
0059 1418674316 99.3155
0060 1418677246 101.4837
0061 1418680175 103.3361
0062 1418683105 104.8310
0063 1418686035 106.3472
0064 1418688964 107.4364
0065 1418691894 109.9921
0066 1418694824 111.5875
0067 1418697753 113.1541
0068 1418700683 114.8229
0069 1418703613 115.9090
0070 1418706542 117.6011
0071 1418709472 122.1377
0072 1418712402 121.9221
0073 1418715332 122.7628
0074 1418718261 125.4211
0075 1418721191 126.8611
0076 1418724121 127.2629
0077 1418727050 130.3349
0078 1418729980 130.4432
0079 1418732910 133.7665
0080 1418735839 135.5338
0081 1418738769 138.5374
0082 1418741699 139.2299
0083 1418744628 141.4797
0084 1418747558 144.0177
0085 1418750488 146.2792
0086 1418753417 146.5440
0087 1418756347 149.6464
0088 1418759277 151.4875
0089 1418762207 154.0807
0090 1418765136 155.5101
0091 1418768066 158.0223
0092 1418770996 160.5451
0093 1418773925 160.9796
0094 1418776855 164.9023
0095 1418779785 165.9870
0096 1418782714 168.5284
0097 1418785644 169.8797
0098 1418788574 171.9686
0099 1418791503 174.8652
0100 1418794433 176.9528
0101 1418797363 178.0463
0102 1418800292 175.2901
0103 1418803222 181.4371
0104 1418806152 182.8289
0105 1418809082 187.1397
0106 1418812011 191.5858
0107 1418814941 191.2612
0108 1418817871 194.2201
0109 1418820800 195.2547
0110 1418823730 197.4843
0111 1418826660 200.9812
0112 1418829589 202.2029
0113 1418832519 203.7028
0114 1418835449 206.3328
0115 1418838378 209.1099
0116 1418841308 210.2661
0117 1418844238 211.8287
0118 1418847167 214.3455
0119 1418850097 213.9744
0120 1418853027 219.7958
0121 1418855957 219.7504
0122 1418858886 224.3604
0123 1418861816 225.9078
0124 1418864746 227.6726
0125 1418867675 229.0307
0126 1418870605 232.6733
0127 1418873535 235.7199
0128 1418876464 236.4951
0129 1418879394 238.2036
0130 1418882324 239.3250
0131 1418885253 241.5673
0132 1418888183 246.1339
0133 1418891113 246.5922
0134 1418894042 248.6629
0135 1418896972 249.3245
0136 1418899902 251.2459
0137 1418902832 256.7153
0138 1418905761 261.6581
0139 1418908691 259.0343
0140 1418911621 260.0737
0141 1418914550 263.0222
0142 1418917480 264.6900
0143 1418920410 269.9639
0144 1418923339 271.9602
0145 1418926269 272.9530
0146 1418929199 271.4337
0147 1418932128 276.4812
0148 1418935058 275.4743
0149 1418937988 285.6977
0150 1418940917 281.8132
0151 1418943847 286.0688
0152 1418946777 284.5297
0153 1418949707 286.2464
0154 1418952636 289.6838
0155 1418955566 294.3548
0156 1418958496 292.0722
0157 1418961425 295.7150
0158 1418964355 299.5978
0159 1418967285 299.6699
0160 1418970214 301.1606
0161 1418973144 301.6220
0162 1418976074 303.4613
0163 1418979003 305.0996
0164 1418981933 308.4086
0165 1418984863 307.2417
0166 1418987792 314.5179
0167 1418990722 316.8834
0168 1418993652 319.6685
0169 1418996582 319.3620
0170 1418999511 312.3629
0171 1419002441 317.1237
0172 1419005371 323.6838
0173 1419008300 323.5087
0174 1419011230 327.3463
0175 1419014160 327.5356
0176 1419017089 330.7361
0177 1419020019 329.0738
0178 1419022949 331.4161
0179 1419025878 333.9923
0180 1419028808 335.3062
0181 1419031738 335.7692
0182 1419034667 341.2361
0183 1419037597 344.4973
0184 1419040527 337.4203
0185 1419043457 335.5480
0186 1419046386 344.9659
0187 1419049316 344.1208
0188 1419052246 343.8889
0189 1419055175 341.4639
0190 1419058105 348.8419
0191 1419061035 350.2470
0192 1419063964 350.8682
0193 1419066894 353.1288
0194 1419069824 357.4185
0195 1419072753 356.1247
0196 1419075683 351.5205
0197 1419078613 354.0222
0198 1419081542 360.0265
0199 1419084472 357.1850
0200 1419087402 355.3551
0201 1419090332 362.4866
0202 1419093261 364.0601
0203 1419096191 366.9803
0204 1419099121 367.4494
0205 1419102050 368.5508
0206 1419104980 370.5612
0207 1419107910 375.4105
0208 1419110839 374.4038
0209 1419113769 372.5715
0210 1419116699 374.7491
0211 1419119628 373.9016
0212 1419122558 377.2894
0213 1419125488 374.6262
0214 1419128417 382.2164
0215 1419131347 381.4406
0216 1419134277 379.7404
0217 1419137207 385.3537
0218 1419140136 382.8687
0219 1419143066 384.2141
0220 1419145996 380.6336
0221 1419148925 376.2545
0222 1419151855 379.3183
0223 1419154785 385.3065
0224 1419157714 383.7991
0225 1419160644 384.6180
0226 1419163574 385.6890
0227 1419166503 388.4695
0228 1419169433 382.6107
0229 1419172363 386.4959
0230 1419175292 387.8738
0231 1419178222 385.1718
0232 1419181152 391.9007
0233 1419184082 394.4608
0234 1419187011 390.6581
0235 1419189941 395.6422
0236 1419192871 393.5102
0237 1419195800 391.6183
0238 1419198730 390.4305
0239 1419201660 394.3012
0240 1419204589 394.9338
0241 1419207519 392.0770
0242 1419210449 395.2118
0243 1419213378 397.9437
0244 1419216308 392.4009
0245 1419219238 396.0026
0246 1419222167 393.1663
0247 1419225097 394.0827
0248 1419228027 401.2082
0249 1419230957 395.9664
0250 1419233886 396.5982
0251 1419236816 399.9638
0252 1419239746 400.9205
0253 1419242675 403.2397
0254 1419245605 402.8000
0255 1419248535 400.5731
0256 1419251464 394.1729
0257 1419254394 402.4754
0258 1419257324 402.9314
0259 1419260253 406.2533
0260 1419263183 402.7833
0261 1419266113 398.7286
0262 1419269042 408.7133
0263 1419271972 407.6437
0264 1419274902 404.9318
0265 1419277832 407.7773
0266 1419280761 403.6457
0267 1419283691 406.4555
0268 1419286621 402.7196
0269 1419289550 405.4158
0270 1419292480 406.1304
0271 1419295410 404.5868
0272 1419298339 400.5680
0273 1419301269 405.4036
0274 1419304199 406.1254
0275 1419307128 409.4616
0276 1419310058 410.0386
0277 1419312988 410.8679
0278 1419315917 407.6387
0279 1419318847 407.4480
0280 1419321777 412.0656
0281 1419324707 410.7243
0282 1419327636 414.2873
0283 1419330566 410.4253
0284 1419333496 411.5984
0285 1419336425 411.7457
0286 1419339355 409.3814
0287 1419342285 412.0186
0288 1419345214 411.9439
0289 1419348144 411.2142
0290 1419351074 415.2348
0291 1419354003 415.1529
0292 1419356933 415.8401
0293 1419359863 413.9567
0294 1419362792 413.5529
0295 1419365722 417.0949
0296 1419368652 415.2768
0297 1419371582 415.3285
0298 1419374511 419.7239
0299 1419377441 422.6241
0300 1419380371 416.3936
0301 1419383300 418.7430
0302 1419386230 418.6045
0303 1419389160 416.9008
0304 1419392089 422.7950
0305 1419395019 415.6729
0306 1419397949 418.5420
0307 1419400878 414.9610
0308 1419403808 413.8501
0309 1419406738 417.4045
0310 1419409667 418.9979
0311 1419412597 418.9593
0312 1419415527 421.2868
0313 1419418457 416.8397
0314 1419421386 427.5279
0315 1419424316 420.6229
0316 1419427246 420.6946
0317 1419430175 422.1693
0318 1419433105 415.1948
0319 1419436035 423.2852
0320 1419438964 420.3416
0321 1419441894 420.7699
0322 1419444824 424.3327
0323 1419447753 423.4467
0324 1419450683 425.0646
0325 1419453613 425.3280
0326 1419456542 425.9849
0327 1419459472 430.6726
0328 1419462402 426.5956
0329 1419465332 427.1858
0330 1419468261 431.4722
0331 1419471191 430.7395
0332 1419474121 430.6587
0333 1419477050 433.5219
0334 1419479980 432.9794
0335 1419482910 429.1442
0336 1419485839 428.4480
0337 1419488769 431.7508
0338 1419491699 435.9919
0339 1419494628 436.0828
0340 1419497558 430.1472
0341 1419500488 432.5723
0342 1419503417 434.5342
0343 1419506347 431.0071
0344 1419509277 434.9099
0345 1419512207 436.7484
0346 1419515136 441.8587
0347 1419518066 441.9776
0348 1419520996 441.7976
0349 1419523925 444.6934
0350 1419526855 442.3975
0351 1419529785 443.5858
0352 1419532714 440.1284
0353 1419535644 445.9264
0354 1419538574 446.0584
0355 1419541503 441.1886
0356 1419544433 437.9247
0357 1419547363 448.1095
0358 1419550292 452.2845
0359 1419553222 450.4237
0360 1419556152 446.0534
0361 1419559082 450.3658
0362 1419562011 450.8375
0363 1419564941 450.7350
0364 1419567871 448.7491
0365 1419570800 446.5163
0366 1419573730 455.2924
0367 1419576660 452.0780
0368 1419579589 452.8976
0369 1419582519 458.6575
0370 1419585449 456.5904
0371 1419588378 462.0087
0372 1419591308 458.4609
0373 1419594238 457.3418
0374 1419597167 458.3513
0375 1419600097 456.1319
0376 1419603027 457.6247
0377 1419605957 472.7073
0378 1419608886 469.3909
0379 1419611816 462.5518
0380 1419614746 464.6709
0381 1419617675 463.7740
0382 1419620605 464.8071
0383 1419623535 465.2219
0384 1419626464 464.5758
0385 1419629394 472.1946
0386 1419632324 471.2831
0387 1419635253 472.4925
0388 1419638183 469.9687
0389 1419641113 475.3681
0390 1419644042 479.6343
0391 1419646972 476.7072
0392 1419649902 478.6344
0393 1419652832 478.7841
0394 1419655761 478.9167
0395 1419658691 485.8732
0396 1419661621 481.5060
0397 1419664550 481.9324
0398 1419667480 484.4750
0399 1419670410 484.1606
0400 1419673339 483.7867
0401 1419676269 493.2981
0402 1419679199 489.5989
0403 1419682128 489.0625
0404 1419685058 482.1104
0405 1419687988 490.2607
0406 1419690917 490.8626
0407 1419693847 497.5771
0408 1419696777 497.0658
0409 1419699707 494.9339
0410 1419702636 493.3970
0411 1419705566 495.9601
0412 1419708496 494.9090
0413 1419711425 498.2021
0414 1419714355 499.7609
0415 1419717285 503.2697
0416 1419720214 509.6248
0417 1419723144 503.8575
0418 1419726074 501.3081
0419 1419729003 502.8122
0420 1419731933 498.9923
0421 1419734863 513.0526
0422 1419737792 513.9807
0423 1419740722 511.0639
0424 1419743652 516.0264
0425 1419746582 509.8661
0426 1419749511 513.7452
0427 1419752441 508.6505
0428 1419755371 505.8764
0429 1419758300 512.6761
0430 1419761230 526.5278
0431 1419764160 511.8688
0432 1419767089 509.7035
0433 1419770019 523.8610
0434 1419772949 515.6665
0435 1419775878 525.2269
0436 1419778808 524.2283
0437 1419781738 521.5800
0438 1419784667 529.9176
0439 1419787597 522.2005
0440 1419790527 525.6365
0441 1419793457 523.9462
0442 1419796386 527.2265
0443 1419799316 527.9467
0444 1419802246 526.2919
0445 1419805175 533.6561
0446 1419808105 529.9857
0447 1419811035 529.9277
0448 1419813964 537.9434
0449 1419816894 542.8599
0450 1419819824 536.2278
0451 1419822753 542.2045
0452 1419825683 535.6804
0453 1419828613 537.6841
0454 1419831542 544.6766
0455 1419834472 549.5848
0456 1419837402 536.8877
0457 1419840332 542.7415
0458 1419843261 544.5568
0459 1419846191 544.5585
0460 1419849121 545.9740
0461 1419852050 551.1537
0462 1419854980 547.9106
0463 1419857910 552.5303
0464 1419860839 550.1089
0465 1419863769 554.3524
0466 1419866699 554.6646
0467 1419869628 557.9365
0468 1419872558 560.5510
0469 1419875488 559.7822
0470 1419878417 551.8436
0471 1419881347 556.8203
0472 1419884277 559.5074
0473 1419887207 556.1786
0474 1419890136 559.7427
0475 1419893066 562.2833
0476 1419895996 556.6743
0477 1419898925 563.3591
0478 1419901855 557.7083
0479 1419904785 566.9086
0480 1419907714 562.8945
0481 1419910644 564.9212
0482 1419913574 566.3525
0483 1419916503 570.6331
0484 1419919433 563.1486
0485 1419922363 566.6708
0486 1419925292 573.3727
0487 1419928222 571.4548
0488 1419931152 567.3769
0489 1419934082 569.6794
0490 1419937011 571.6937
0491 1419939941 577.3615
0492 1419942871 574.2985
0493 1419945800 577.2722
0494 1419948730 577.2571
0495 1419951660 581.2815
0496 1419954589 571.3552
0497 1419957519 573.7341
0498 1419960449 572.5723
0499 1419963378 577.7277
0500 1419966308 586.4128
0501 1419969238 584.2111
0502 1419972167 579.6298
0503 1419975097 581.1287
0504 1419978027 579.7731
0505 1419980957 586.2192
0506 1419983886 583.0526
0507 1419986816 585.7153
0508 1419989746 589.0080
0509 1419992675 587.4174
0510 1419995605 597.6723
0511 1419998535 713.6785
0512 1420001464 1267.7156
0513 1420004394 704.7281
0514 1420007324 599.2679
0515 1420010253 590.0392
0516 1420013183 577.7117
0517 1420016113 582.3984
0518 1420019042 588.4653
0519 1420021972 585.4793
0520 1420024902 585.1113
0521 1420027832 574.0583
0522 1420030761 580.8840
0523 1420033691 573.0859
0524 1420036621 578.7688
0525 1420039550 588.2926
0526 1420042480 580.0865
0527 1420045410 585.0653
0528 1420048339 584.3509
0529 1420051269 575.4877
0530 1420054199 577.3734
0531 1420057128 577.4067
0532 1420060058 582.5564
0533 1420062988 586.7590
0534 1420065917 583.2418
0535 1420068847 569.5760
0536 1420071777 572.9330
0537 1420074707 579.2103
0538 1420077636 578.1287
0539 1420080566 589.0929
0540 1420083496 580.1458
0541 1420086425 579.8384
0542 1420089355 571.9019
0543 1420092285 578.2458
0544 1420095214 582.4772
0545 1420098144 570.8491
0546 1420101074 579.8683
0547 1420104003 575.4797
0548 1420106933 576.5509
0549 1420109863 576.5827
0550 1420112792 576.1736
0551 1420115722 580.2032
0552 1420118652 576.2367
0553 1420121582 563.7531
0554 1420124511 573.2988
0555 1420127441 574.6758
0556 1420130371 572.6809
0557 1420133300 570.6473
0558 1420136230 571.1456
0559 1420139160 575.6661
0560 1420142089 580.1805
0561 1420145019 574.3723
0562 1420147949 574.8175
0563 1420150878 571.4922
0564 1420153808 571.3485
0565 1420156738 571.2655
0566 1420159667 569.0873
0567 1420162597 569.8743
0568 1420165527 574.6300
0569 1420168457 567.7918
0570 1420171386 566.6708
0571 1420174316 566.9664
0572 1420177246 559.8562
0573 1420180175 563.0699
0574 1420183105 560.1428
0575 1420186035 566.4592
0576 1420188964 571.2180
0577 1420191894 564.0423
0578 1420194824 559.0195
0579 1420197753 560.6838
0580 1420200683 556.9271
0581 1420203613 553.6678
0582 1420206542 559.7903
0583 1420209472 563.4323
0584 1420212402 562.4722
0585 1420215332 553.0666
0586 1420218261 553.6873
0587 1420221191 557.8856
0588 1420224121 552.9681
0589 1420227050 544.4847
0590 1420229980 550.5440
0591 1420232910 547.8437
0592 1420235839 554.8505
0593 1420238769 541.3632
0594 1420241699 546.1055
0595 1420244628 547.9876
0596 1420247558 546.5221
0597 1420250488 549.6006
0598 1420253417 548.9096
0599 1420256347 548.4046
0600 1420259277 543.7967
0601 1420262207 542.9714
0602 1420265136 532.6636
0603 1420268066 545.0753
0604 1420270996 545.4312
0605 1420273925 532.5767
0606 1420276855 535.9755
0607 1420279785 537.1810
0608 1420282714 546.5250
0609 1420285644 538.7684
0610 1420288574 543.1995
0611 1420291503 534.5566
0612 1420294433 535.6960
0613 1420297363 533.1584
0614 1420300292 536.1313
0615 1420303222 530.5279
0616 1420306152 527.2838
0617 1420309082 538.0180
0618 1420312011 534.6776
0619 1420314941 529.8094
0620 1420317871 523.2332
0621 1420320800 531.9745
0622 1420323730 522.7003
0623 1420326660 528.9033
0624 1420329589 521.3978
0625 1420332519 521.7368
0626 1420335449 529.0193
0627 1420338378 527.1181
0628 1420341308 527.5764
0629 1420344238 521.0859
0630 1420347167 522.5406
0631 1420350097 523.2371
0632 1420353027 522.4679
0633 1420355957 521.4017
0634 1420358886 515.0641
0635 1420361816 517.8881
0636 1420364746 521.3225
0637 1420367675 516.3875
0638 1420370605 518.5930
0639 1420373535 519.5749
0640 1420376464 516.5275
0641 1420379394 510.9837
0642 1420382324 514.0873
0643 1420385253 513.7379
0644 1420388183 515.3469
0645 1420391113 516.6669
0646 1420394042 505.4759
0647 1420396972 513.8116
0648 1420399902 516.2802
0649 1420402832 509.0441
0650 1420405761 509.0044
0651 1420408691 506.6201
0652 1420411621 502.3908
0653 1420414550 510.0037
0654 1420417480 511.3854
0655 1420420410 506.7928
0656 1420423339 505.1280
0657 1420426269 499.3991
0658 1420429199 502.6849
0659 1420432128 510.2429
0660 1420435058 506.6815
0661 1420437988 513.8432
0662 1420440917 504.4187
0663 1420443847 495.9593
0664 1420446777 494.2085
0665 1420449707 501.8470
0666 1420452636 497.7630
0667 1420455566 503.3000
0668 1420458496 501.0094
0669 1420461425 499.2926
0670 1420464355 499.2143
0671 1420467285 506.4332
0672 1420470214 502.5568
0673 1420473144 501.0209
0674 1420476074 502.4297
0675 1420479003 496.6698
0676 1420481933 495.1557
0677 1420484863 495.4119
0678 1420487792 490.7948
0679 1420490722 498.9261
0680 1420493652 497.8250
0681 1420496582 496.2758
0682 1420499511 488.7050
0683 1420502441 490.3160
0684 1420505371 488.9461
0685 1420508300 488.4086
0686 1420511230 494.0673
0687 1420514160 494.7234
0688 1420517089 494.3244
0689 1420520019 499.3767
0690 1420522949 492.1888
0691 1420525878 495.7061
0692 1420528808 488.1949
0693 1420531738 491.0426
0694 1420534667 490.6702
0695 1420537597 486.6968
0696 1420540527 489.7976
0697 1420543457 481.7700
0698 1420546386 491.9118
0699 1420549316 487.7278
0700 1420552246 487.7787
0701 1420555175 489.3246
0702 1420558105 494.7397
0703 1420561035 486.4092
0704 1420563964 488.2927
0705 1420566894 492.2144
0706 1420569824 487.7778
0707 1420572753 484.6720
0708 1420575683 488.5880
0709 1420578613 486.7826
0710 1420581542 494.8004
0711 1420584472 486.4534
0712 1420587402 491.2684
0713 1420590332 485.9276
0714 1420593261 487.2084
0715 1420596191 491.7485
0716 1420599121 487.6915
0717 1420602050 488.9555
0718 1420604980 482.5573
0719 1420607910 486.0126
0720 1420610839 488.1678
0721 1420613769 479.2009
0722 1420616699 478.5202
0723 1420619628 482.9898
0724 1420622558 479.0414
0725 1420625488 482.3473
0726 1420628417 486.8437
0727 1420631347 487.4336
0728 1420634277 480.9797
0729 1420637207 486.8417
0730 1420640136 489.0818
0731 1420643066 485.6628
0732 1420645996 482.2074
0733 1420648925 482.8571
0734 1420651855 478.2332
0735 1420654785 485.3436
0736 1420657714 481.0999
0737 1420660644 478.4217
0738 1420663574 482.0449
0739 1420666503 483.0320
0740 1420669433 482.9321
0741 1420672363 482.4026
0742 1420675292 482.6891
0743 1420678222 483.2886
0744 1420681152 486.5991
0745 1420684082 483.3160
0746 1420687011 482.3253
0747 1420689941 481.6633
0748 1420692871 477.1687
0749 1420695800 479.1848
0750 1420698730 481.8163
0751 1420701660 481.8669
0752 1420704589 473.5914
0753 1420707519 475.7552
0754 1420710449 484.1818
0755 1420713378 478.4979
0756 1420716308 483.0637
0757 1420719238 483.9893
0758 1420722167 477.8125
0759 1420725097 481.7603
0760 1420728027 482.7474
0761 1420730957 481.8103
0762 1420733886 480.7252
0763 1420736816 483.5420
0764 1420739746 480.9253
0765 1420742675 486.5864
0766 1420745605 483.6793
0767 1420748535 483.6876
0768 1420751464 482.4723
0769 1420754394 489.5815
0770 1420757324 481.1351
0771 1420760253 482.8035
0772 1420763183 481.7482
0773 1420766113 477.9415
0774 1420769042 482.5030
0775 1420771972 482.3888
0776 1420774902 481.2535
0777 1420777832 484.0568
0778 1420780761 479.1830
0779 1420783691 483.1710
0780 1420786621 483.2331
0781 1420789550 482.8092
0782 1420792480 474.2857
0783 1420795410 479.3530
0784 1420798339 480.9477
0785 1420801269 485.5250
0786 1420804199 480.6775
0787 1420807128 468.8682
0788 1420810058 477.7734
0789 1420812988 468.5825
0790 1420815917 467.9655
0791 1420818847 471.0529
0792 1420821777 477.2485
0793 1420824707 472.2078
0794 1420827636 477.2799
0795 1420830566 473.6470
0796 1420833496 472.9211
0797 1420836425 468.5446
0798 1420839355 468.8292
0799 1420842285 468.0123
0800 1420845214 467.1971
0801 1420848144 474.3047
0802 1420851074 473.7168
0803 1420854003 463.3548
0804 1420856933 456.9196
0805 1420859863 470.2808
0806 1420862792 467.2551
0807 1420865722 461.9379
0808 1420868652 466.6808
0809 1420871582 462.6631
0810 1420874511 458.7703
0811 1420877441 456.1129
0812 1420880371 458.0123
0813 1420883300 465.9405
0814 1420886230 456.1551
0815 1420889160 460.9274
0816 1420892089 458.1360
0817 1420895019 453.7315
0818 1420897949 452.6582
0819 1420900878 452.5638
0820 1420903808 453.4936
0821 1420906738 456.7304
0822 1420909667 450.0574
0823 1420912597 449.3109
0824 1420915527 454.4799
0825 1420918457 445.3140
0826 1420921386 440.3642
0827 1420924316 438.7386
0828 1420927246 436.4409
0829 1420930175 436.1428
0830 1420933105 436.4561
0831 1420936035 439.7018
0832 1420938964 439.0805
0833 1420941894 437.1781
0834 1420944824 429.7009
0835 1420947753 431.0930
0836 1420950683 424.6549
0837 1420953613 423.5360
0838 1420956542 425.2385
0839 1420959472 424.4714
0840 1420962402 424.6042
0841 1420965332 419.4181
0842 1420968261 421.4921
0843 1420971191 418.1909
0844 1420974121 423.7944
0845 1420977050 413.8397
0846 1420979980 409.3139
0847 1420982910 411.6377
0848 1420985839 408.8413
0849 1420988769 407.3871
0850 1420991699 407.1070
0851 1420994628 405.6422
0852 1420997558 395.6812
0853 1421000488 398.5263
0854 1421003417 394.6416
0855 1421006347 396.5177
0856 1421009277 393.6382
0857 1421012207 394.0036
0858 1421015136 387.9618
0859 1421018066 390.6754
0860 1421020996 387.4499
0861 1421023925 379.5997
0862 1421026855 385.0248
0863 1421029785 376.6281
0864 1421032714 375.5231
0865 1421035644 372.6151
0866 1421038574 376.1870
0867 1421041503 368.0637
0868 1421044433 371.2660
0869 1421047363 368.2845
0870 1421050292 362.5653
0871 1421053222 363.2254
0872 1421056152 364.4515
0873 1421059082 352.7041
0874 1421062011 365.3886
0875 1421064941 351.6354
0876 1421067871 352.3599
0877 1421070800 349.1589
0878 1421073730 348.0987
0879 1421076660 347.1819
0880 1421079589 335.8406
0881 1421082519 332.8024
0882 1421085449 333.7552
0883 1421088378 332.4229
0884 1421091308 332.5431
0885 1421094238 329.2980
0886 1421097167 326.7718
0887 1421100097 321.4244
0888 1421103027 321.9809
0889 1421105957 319.9363
0890 1421108886 313.6175
0891 1421111816 313.6024
0892 1421114746 308.0825
0893 1421117675 305.8068
0894 1421120605 302.0055
0895 1421123535 299.9582
0896 1421126464 299.8496
0897 1421129394 294.7542
0898 1421132324 294.5252
0899 1421135253 288.3105
0900 1421138183 289.8633
0901 1421141113 283.6278
0902 1421144042 284.9587
0903 1421146972 282.7787
0904 1421149902 279.7291
0905 1421152832 272.1747
0906 1421155761 268.5235
0907 1421158691 267.4368
0908 1421161621 268.3397
0909 1421164550 263.8913
0910 1421167480 263.0035
0911 1421170410 254.4906
0912 1421173339 254.1174
0913 1421176269 252.5681
0914 1421179199 252.7370
0915 1421182128 243.8619
0916 1421185058 244.5667
0917 1421187988 243.8643
0918 1421190917 237.8698
0919 1421193847 236.9978
0920 1421196777 233.4760
0921 1421199707 227.9207
0922 1421202636 226.6572
0923 1421205566 223.8137
0924 1421208496 218.8662
0925 1421211425 219.5246
0926 1421214355 217.0640
0927 1421217285 214.3318
0928 1421220214 212.2364
0929 1421223144 210.6595
0930 1421226074 207.5258
0931 1421229003 202.7247
0932 1421231933 199.1150
0933 1421234863 201.4759
0934 1421237792 197.7668
0935 1421240722 195.0911
0936 1421243652 189.4496
0937 1421246582 188.3461
0938 1421249511 187.7987
0939 1421252441 183.5742
0940 1421255371 179.9068
0941 1421258300 178.4634
0942 1421261230 176.7142
0943 1421264160 174.4821
0944 1421267089 172.5598
0945 1421270019 168.6973
0946 1421272949 167.2489
0947 1421275878 165.2362
0948 1421278808 159.9936
0949 1421281738 158.2644
0950 1421284667 155.3981
0951 1421287597 152.9698
0952 1421290527 152.1294
0953 1421293457 147.7005
0954 1421296386 148.4212
0955 1421299316 144.7831
0956 1421302246 142.8781
0957 1421305175 140.3034
0958 1421308105 139.7956
0959 1421311035 136.8376
0960 1421313964 134.7733
0961 1421316894 131.3608
0962 1421319824 128.5860
0963 1421322753 129.0452
0964 1421325683 124.7094
0965 1421328613 122.4251
0966 1421331542 121.6869
0967 1421334472 119.0026
0968 1421337402 118.6764
0969 1421340332 117.3782
0970 1421343261 115.1710
0971 1421346191 111.8731
0972 1421349121 111.1971
0973 1421352050 108.5093
0974 1421354980 106.0835
0975 1421357910 105.2546
0976 1421360839 102.9925
0977 1421363769 101.2184
0978 1421366699 99.1423
0979 1421369628 98.1487
0980 1421372558 96.9624
0981 1421375488 95.9080
0982 1421378417 95.0146
0983 1421381347 93.4936
0984 1421384277 91.6644
0985 1421387207 90.1339
0986 1421390136 87.9778
0987 1421393066 86.4862
0988 1421395996 85.6540
0989 1421398925 83.2549
0990 1421401855 82.1554
0991 1421404785 81.5601
0992 1421407714 80.6014
0993 1421410644 78.4638
0994 1421413574 77.5949
0995 1421416503 77.6305
0996 1421419433 75.9271
0997 1421422363 75.1300
0998 1421425292 73.6866
0999 1421428222 72.5658
1000 1421431152 71.4488
1001 1421434082 70.7961
1002 1421437011 70.4102
1003 1421439941 69.7310
1004 1421442871 68.8528
1005 1421445800 67.6389
1006 1421448730 66.1218
1007 1421451660 65.5409
1008 1421454589 65.3287
1009 1421457519 64.9452
1010 1421460449 63.4998
1011 1421463378 62.7705
1012 1421466308 61.9847
1013 1421469238 62.1717
1014 1421472167 61.0141
1015 1421475097 60.7742
1016 1421478027 60.4994
1017 1421480957 60.4895
1018 1421483886 59.6617
1019 1421486816 59.1167
1020 1421489746 59.2059
1021 1421492675 59.0722
1022 1421495605 58.8292
1023 1421498535 58.6551
