# File: 20-05-29T170404.hot
# NOTEA     = None Attached.  RTLSDR Dongle Test
# NOTEB     = Spectral Integration
# OBSERVER  = Science Aficionado
# DEVICE    = rtl=0,bias=1
# DATADIR   = ../data/
# SITE      = None Attached.  RTLSDR Dongle Test
# CITY      = Green Bank
# REGION    = West Virginia
# COUNTRY   = US
# TELTYPE   = Bubble Wrap  Horn
# FRAME     = TOPO
# GAIN1     = 40.0
# GAIN2     = 11.0
# GAIN3     = 11.0
# GAIN4     = 0.0
# Count     = 2500
# CenterFreq= 1420000000.0
# Bandwidth = 3000000.0
# Duration  = 21.832814
# DeltaX    = 5859.375
# TSYS      = 200.0
# TRX       = 100.0
# TRMS      = 2.0
# TINT      = 1.0
# KPERC     = 100.0
# GAINFACT  = 1.0
# BUNIT     = Counts
# NCHAN     = 1024
# NSPEC     = 1
# NTIME     = 0
# NSAMPLES  = 0
# EPEAK     = 4.10875183718
# ERMS      = 0.995973393526
# EMJD      = 58568.808999981004 
# REFCHAN   = 512.0
# REFSAMPL  = 256.0
# NAVE      = 50
# NMEDIAN   = 1024
# Fft_rate  = 5000
# UTC       = 2020-05-29 17:04:04.230970
# SECONDS   =       0.0000000000 
# LST       = 04:15:25.830
# AZ        = 180.0
# EL        = -90.0
# TELLON    = -79:50:22.920
# TELLAT    = +38:25:59.160
# RA        = 16:12:41.340
# DEC       = -38:19:54.100
# GALLON    = 340:39:16.30
# GALLAT    = +09:22:56.10
# ALT_SUN   = +73:06:29.8
# AZ_SUN    = +169:43:02.8
# ETAA      = 0.8
# ETAB      = 0.99
# POLANGLE  = 0.0
# TELSIZEAM = 1.0
# TELSIZEBM = 1.0
# AST_VERS  = 05.01
0000 1418501464 57.0967
0001 1418504394 57.7208
0002 1418507324 57.5874
0003 1418510253 58.1078
0004 1418513183 57.3068
0005 1418516113 57.7406
0006 1418519042 57.4612
0007 1418521972 57.7689
0008 1418524902 58.2206
0009 1418527832 58.2849
0010 1418530761 57.4576
0011 1418533691 58.3938
0012 1418536621 58.8843
0013 1418539550 58.6836
0014 1418542480 58.3124
0015 1418545410 59.0457
0016 1418548339 60.6317
0017 1418551269 59.3856
0018 1418554199 60.7757
0019 1418557128 61.1198
0020 1418560058 61.8123
0021 1418562988 61.6591
0022 1418565917 62.0000
0023 1418568847 62.2851
0024 1418571777 63.3409
0025 1418574707 63.7739
0026 1418577636 64.4413
0027 1418580566 64.9380
0028 1418583496 65.9681
0029 1418586425 66.5379
0030 1418589355 66.5920
0031 1418592285 68.1271
0032 1418595214 68.9114
0033 1418598144 69.9704
0034 1418601074 70.4225
0035 1418604003 71.5077
0036 1418606933 71.9439
0037 1418609863 73.2855
0038 1418612792 74.0569
0039 1418615722 74.8213
0040 1418618652 76.7094
0041 1418621582 76.7598
0042 1418624511 78.0442
0043 1418627441 79.5986
0044 1418630371 79.8342
0045 1418633300 81.0428
0046 1418636230 82.2618
0047 1418639160 82.7610
0048 1418642089 85.1129
0049 1418645019 87.2859
0050 1418647949 86.8781
0051 1418650878 88.9045
0052 1418653808 89.7827
0053 1418656738 90.9232
0054 1418659667 92.2370
0055 1418662597 94.4069
0056 1418665527 94.6308
0057 1418668457 96.8556
0058 1418671386 100.0975
0059 1418674316 100.1565
0060 1418677246 101.5561
0061 1418680175 103.0015
0062 1418683105 106.2759
0063 1418686035 107.1404
0064 1418688964 107.2086
0065 1418691894 108.2539
0066 1418694824 111.7187
0067 1418697753 112.5890
0068 1418700683 114.5553
0069 1418703613 115.8849
0070 1418706542 118.0054
0071 1418709472 118.5955
0072 1418712402 121.2178
0073 1418715332 123.5883
0074 1418718261 124.0766
0075 1418721191 127.0384
0076 1418724121 129.1588
0077 1418727050 131.1370
0078 1418729980 133.1335
0079 1418732910 135.1909
0080 1418735839 133.4927
0081 1418738769 137.3731
0082 1418741699 138.3380
0083 1418744628 140.0536
0084 1418747558 142.7962
0085 1418750488 146.0837
0086 1418753417 147.9375
0087 1418756347 150.0126
0088 1418759277 149.8437
0089 1418762207 151.6766
0090 1418765136 153.5320
0091 1418768066 158.5473
0092 1418770996 161.5974
0093 1418773925 161.7083
0094 1418776855 163.9872
0095 1418779785 164.3212
0096 1418782714 169.1924
0097 1418785644 173.4536
0098 1418788574 174.3280
0099 1418791503 173.5647
0100 1418794433 177.4792
0101 1418797363 177.6247
0102 1418800292 178.4788
0103 1418803222 183.2620
0104 1418806152 186.3062
0105 1418809082 186.9033
0106 1418812011 192.1869
0107 1418814941 191.8821
0108 1418817871 195.7496
0109 1418820800 196.1099
0110 1418823730 199.1291
0111 1418826660 197.5941
0112 1418829589 198.3335
0113 1418832519 203.1344
0114 1418835449 206.0996
0115 1418838378 210.8251
0116 1418841308 212.5747
0117 1418844238 211.8495
0118 1418847167 214.4929
0119 1418850097 217.5045
0120 1418853027 218.8815
0121 1418855957 217.9610
0122 1418858886 223.4581
0123 1418861816 225.1558
0124 1418864746 230.3223
0125 1418867675 231.3797
0126 1418870605 234.4431
0127 1418873535 235.3322
0128 1418876464 236.6247
0129 1418879394 238.0705
0130 1418882324 241.7086
0131 1418885253 243.7658
0132 1418888183 245.1131
0133 1418891113 247.1336
0134 1418894042 250.2111
0135 1418896972 253.6616
0136 1418899902 256.2495
0137 1418902832 258.7330
0138 1418905761 257.6678
0139 1418908691 259.7571
0140 1418911621 262.8980
0141 1418914550 263.0287
0142 1418917480 269.5803
0143 1418920410 269.6779
0144 1418923339 269.3163
0145 1418926269 270.5207
0146 1418929199 274.1124
0147 1418932128 272.8980
0148 1418935058 277.4765
0149 1418937988 278.7059
0150 1418940917 283.1406
0151 1418943847 288.1933
0152 1418946777 285.0479
0153 1418949707 288.4739
0154 1418952636 289.9761
0155 1418955566 294.1844
0156 1418958496 297.2749
0157 1418961425 297.8073
0158 1418964355 297.1588
0159 1418967285 298.3761
0160 1418970214 299.4665
0161 1418973144 306.0423
0162 1418976074 304.8268
0163 1418979003 304.3961
0164 1418981933 308.4941
0165 1418984863 309.9092
0166 1418987792 311.5999
0167 1418990722 312.6818
0168 1418993652 313.2175
0169 1418996582 314.9664
0170 1418999511 320.4584
0171 1419002441 320.4228
0172 1419005371 317.9168
0173 1419008300 323.5374
0174 1419011230 325.4353
0175 1419014160 330.9953
0176 1419017089 329.8514
0177 1419020019 328.6592
0178 1419022949 330.0271
0179 1419025878 333.2887
0180 1419028808 333.0861
0181 1419031738 332.7535
0182 1419034667 337.4385
0183 1419037597 339.6166
0184 1419040527 344.8162
0185 1419043457 343.5862
0186 1419046386 346.2978
0187 1419049316 341.7170
0188 1419052246 338.8470
0189 1419055175 345.1029
0190 1419058105 349.6481
0191 1419061035 354.9478
0192 1419063964 350.6675
0193 1419066894 352.0834
0194 1419069824 357.9635
0195 1419072753 360.1019
0196 1419075683 359.2609
0197 1419078613 364.0463
0198 1419081542 358.8323
0199 1419084472 356.3751
0200 1419087402 365.2715
0201 1419090332 364.7393
0202 1419093261 361.4430
0203 1419096191 363.7570
0204 1419099121 368.1895
0205 1419102050 366.3152
0206 1419104980 369.0449
0207 1419107910 369.6970
0208 1419110839 368.4091
0209 1419113769 374.3073
0210 1419116699 372.7459
0211 1419119628 373.1138
0212 1419122558 377.5412
0213 1419125488 379.3904
0214 1419128417 376.8473
0215 1419131347 375.2840
0216 1419134277 372.6817
0217 1419137207 376.1769
0218 1419140136 383.2768
0219 1419143066 381.9595
0220 1419145996 382.3639
0221 1419148925 383.6438
0222 1419151855 385.4566
0223 1419154785 384.3484
0224 1419157714 384.0470
0225 1419160644 382.8022
0226 1419163574 385.6227
0227 1419166503 393.8424
0228 1419169433 389.6696
0229 1419172363 384.2435
0230 1419175292 387.6131
0231 1419178222 388.4193
0232 1419181152 389.6631
0233 1419184082 389.0357
0234 1419187011 388.4793
0235 1419189941 390.0369
0236 1419192871 397.6966
0237 1419195800 397.1926
0238 1419198730 391.1058
0239 1419201660 391.4013
0240 1419204589 394.2953
0241 1419207519 396.8203
0242 1419210449 394.0915
0243 1419213378 395.2837
0244 1419216308 399.3969
0245 1419219238 401.9609
0246 1419222167 402.8005
0247 1419225097 399.2522
0248 1419228027 401.5007
0249 1419230957 402.5022
0250 1419233886 403.0676
0251 1419236816 400.2791
0252 1419239746 399.1823
0253 1419242675 401.7890
0254 1419245605 399.9479
0255 1419248535 404.8304
0256 1419251464 402.0400
0257 1419254394 405.5481
0258 1419257324 403.7347
0259 1419260253 398.9670
0260 1419263183 406.3155
0261 1419266113 406.8749
0262 1419269042 402.3204
0263 1419271972 404.0213
0264 1419274902 408.5793
0265 1419277832 406.0620
0266 1419280761 408.3130
0267 1419283691 408.1252
0268 1419286621 406.4394
0269 1419289550 406.0368
0270 1419292480 413.1543
0271 1419295410 406.8676
0272 1419298339 407.4550
0273 1419301269 409.1200
0274 1419304199 411.7319
0275 1419307128 414.1652
0276 1419310058 405.4280
0277 1419312988 411.0391
0278 1419315917 410.5181
0279 1419318847 407.7864
0280 1419321777 408.3690
0281 1419324707 414.9313
0282 1419327636 413.8042
0283 1419330566 412.5992
0284 1419333496 412.5043
0285 1419336425 413.4623
0286 1419339355 414.4351
0287 1419342285 415.5840
0288 1419345214 416.2716
0289 1419348144 413.6733
0290 1419351074 416.7016
0291 1419354003 415.3940
0292 1419356933 413.1289
0293 1419359863 413.4569
0294 1419362792 416.6089
0295 1419365722 411.8871
0296 1419368652 414.4038
0297 1419371582 414.6092
0298 1419374511 412.9533
0299 1419377441 418.5088
0300 1419380371 420.0480
0301 1419383300 419.3163
0302 1419386230 416.3520
0303 1419389160 415.6911
0304 1419392089 421.9024
0305 1419395019 418.9530
0306 1419397949 416.4664
0307 1419400878 418.2202
0308 1419403808 419.4727
0309 1419406738 418.6879
0310 1419409667 419.3402
0311 1419412597 420.5967
0312 1419415527 418.4034
0313 1419418457 420.2776
0314 1419421386 421.7186
0315 1419424316 417.6086
0316 1419427246 424.7830
0317 1419430175 424.3665
0318 1419433105 425.4763
0319 1419436035 422.6328
0320 1419438964 419.0613
0321 1419441894 427.0125
0322 1419444824 431.7643
0323 1419447753 428.9530
0324 1419450683 432.5213
0325 1419453613 431.9665
0326 1419456542 431.8947
0327 1419459472 427.3212
0328 1419462402 426.8934
0329 1419465332 428.4249
0330 1419468261 430.8910
0331 1419471191 429.7025
0332 1419474121 427.1976
0333 1419477050 431.1375
0334 1419479980 431.7045
0335 1419482910 431.3359
0336 1419485839 427.4648
0337 1419488769 436.3287
0338 1419491699 432.3166
0339 1419494628 431.9467
0340 1419497558 435.7964
0341 1419500488 431.4821
0342 1419503417 433.6338
0343 1419506347 436.2726
0344 1419509277 438.4646
0345 1419512207 438.7890
0346 1419515136 437.5851
0347 1419518066 442.4306
0348 1419520996 440.8559
0349 1419523925 434.4757
0350 1419526855 434.7662
0351 1419529785 443.7568
0352 1419532714 438.9835
0353 1419535644 438.7801
0354 1419538574 437.7833
0355 1419541503 448.6437
0356 1419544433 450.6643
0357 1419547363 447.7875
0358 1419550292 448.9652
0359 1419553222 443.5742
0360 1419556152 447.6102
0361 1419559082 448.7082
0362 1419562011 447.3713
0363 1419564941 456.5432
0364 1419567871 451.4224
0365 1419570800 445.8401
0366 1419573730 450.7596
0367 1419576660 447.5634
0368 1419579589 453.4415
0369 1419582519 455.3022
0370 1419585449 454.1622
0371 1419588378 465.1850
0372 1419591308 454.8153
0373 1419594238 463.3026
0374 1419597167 460.0480
0375 1419600097 453.6550
0376 1419603027 462.9434
0377 1419605957 462.9975
0378 1419608886 459.6030
0379 1419611816 462.4744
0380 1419614746 471.1433
0381 1419617675 471.0563
0382 1419620605 469.6265
0383 1419623535 471.0671
0384 1419626464 467.2503
0385 1419629394 469.2970
0386 1419632324 466.6480
0387 1419635253 468.9019
0388 1419638183 473.8260
0389 1419641113 473.3905
0390 1419644042 473.0464
0391 1419646972 472.8346
0392 1419649902 480.2838
0393 1419652832 480.3678
0394 1419655761 485.1022
0395 1419658691 479.2597
0396 1419661621 484.8484
0397 1419664550 485.8803
0398 1419667480 479.0217
0399 1419670410 480.5600
0400 1419673339 487.3705
0401 1419676269 484.0484
0402 1419679199 487.5637
0403 1419682128 483.8041
0404 1419685058 485.8698
0405 1419687988 486.8454
0406 1419690917 492.7450
0407 1419693847 490.7026
0408 1419696777 496.4960
0409 1419699707 489.8747
0410 1419702636 498.0120
0411 1419705566 501.2465
0412 1419708496 504.2682
0413 1419711425 499.8024
0414 1419714355 502.4525
0415 1419717285 497.2329
0416 1419720214 507.1319
0417 1419723144 500.5960
0418 1419726074 503.4594
0419 1419729003 513.3640
0420 1419731933 503.5623
0421 1419734863 504.4398
0422 1419737792 508.7391
0423 1419740722 508.0717
0424 1419743652 513.7892
0425 1419746582 512.8415
0426 1419749511 517.0526
0427 1419752441 518.5460
0428 1419755371 512.6409
0429 1419758300 513.1497
0430 1419761230 518.3879
0431 1419764160 519.3243
0432 1419767089 520.3115
0433 1419770019 521.4325
0434 1419772949 526.6358
0435 1419775878 527.1192
0436 1419778808 529.6195
0437 1419781738 530.4075
0438 1419784667 527.8583
0439 1419787597 523.7921
0440 1419790527 527.8239
0441 1419793457 535.1977
0442 1419796386 531.5179
0443 1419799316 535.9744
0444 1419802246 532.7491
0445 1419805175 528.4673
0446 1419808105 537.9693
0447 1419811035 540.3061
0448 1419813964 537.1799
0449 1419816894 545.0125
0450 1419819824 540.0392
0451 1419822753 544.3593
0452 1419825683 548.0772
0453 1419828613 542.8397
0454 1419831542 540.2656
0455 1419834472 548.8973
0456 1419837402 544.6818
0457 1419840332 542.4741
0458 1419843261 542.2636
0459 1419846191 543.6613
0460 1419849121 549.5976
0461 1419852050 544.4689
0462 1419854980 554.9295
0463 1419857910 552.0690
0464 1419860839 553.7280
0465 1419863769 554.7392
0466 1419866699 565.1298
0467 1419869628 553.2067
0468 1419872558 560.1335
0469 1419875488 548.4930
0470 1419878417 558.7265
0471 1419881347 555.7756
0472 1419884277 559.9250
0473 1419887207 561.3407
0474 1419890136 560.0154
0475 1419893066 569.1495
0476 1419895996 559.4601
0477 1419898925 561.1683
0478 1419901855 563.8109
0479 1419904785 563.8790
0480 1419907714 565.2510
0481 1419910644 561.0325
0482 1419913574 573.4827
0483 1419916503 567.8849
0484 1419919433 564.8155
0485 1419922363 569.0223
0486 1419925292 570.1129
0487 1419928222 568.6052
0488 1419931152 570.0123
0489 1419934082 568.7498
0490 1419937011 571.1067
0491 1419939941 568.8920
0492 1419942871 567.2629
0493 1419945800 575.0590
0494 1419948730 572.0751
0495 1419951660 577.4952
0496 1419954589 571.8497
0497 1419957519 579.9280
0498 1419960449 581.1614
0499 1419963378 583.0796
0500 1419966308 577.9507
0501 1419969238 576.4777
0502 1419972167 581.7961
0503 1419975097 575.8152
0504 1419978027 581.7626
0505 1419980957 585.4337
0506 1419983886 585.8831
0507 1419986816 586.2680
0508 1419989746 584.4457
0509 1419992675 585.1953
0510 1419995605 592.3700
0511 1419998535 696.3737
0512 1420001464 1254.8618
0513 1420004394 705.2134
0514 1420007324 592.2203
0515 1420010253 590.4316
0516 1420013183 581.6470
0517 1420016113 586.9003
0518 1420019042 589.9561
0519 1420021972 586.4040
0520 1420024902 588.7759
0521 1420027832 591.2773
0522 1420030761 577.2899
0523 1420033691 582.1301
0524 1420036621 590.9077
0525 1420039550 582.3240
0526 1420042480 582.3530
0527 1420045410 577.0438
0528 1420048339 586.1750
0529 1420051269 580.5430
0530 1420054199 572.7848
0531 1420057128 583.8672
0532 1420060058 581.2693
0533 1420062988 582.4219
0534 1420065917 584.2844
0535 1420068847 585.1062
0536 1420071777 584.7367
0537 1420074707 587.6401
0538 1420077636 579.1524
0539 1420080566 581.4055
0540 1420083496 575.1656
0541 1420086425 585.4953
0542 1420089355 580.6799
0543 1420092285 582.4760
0544 1420095214 578.0560
0545 1420098144 585.3350
0546 1420101074 575.3359
0547 1420104003 573.1048
0548 1420106933 584.6402
0549 1420109863 568.9037
0550 1420112792 576.0903
0551 1420115722 580.0080
0552 1420118652 575.8215
0553 1420121582 572.6722
0554 1420124511 580.5213
0555 1420127441 572.9751
0556 1420130371 575.4656
0557 1420133300 570.5678
0558 1420136230 571.6699
0559 1420139160 577.2318
0560 1420142089 571.2571
0561 1420145019 571.6485
0562 1420147949 569.6221
0563 1420150878 575.2572
0564 1420153808 570.3975
0565 1420156738 574.5225
0566 1420159667 574.5263
0567 1420162597 570.5194
0568 1420165527 576.0057
0569 1420168457 564.8967
0570 1420171386 571.3177
0571 1420174316 569.7055
0572 1420177246 566.0787
0573 1420180175 567.3583
0574 1420183105 553.8134
0575 1420186035 565.3079
0576 1420188964 561.1332
0577 1420191894 556.9178
0578 1420194824 570.5164
0579 1420197753 560.5458
0580 1420200683 556.2717
0581 1420203613 554.2142
0582 1420206542 561.4694
0583 1420209472 561.6080
0584 1420212402 564.4568
0585 1420215332 564.2853
0586 1420218261 551.8818
0587 1420221191 556.0146
0588 1420224121 553.5598
0589 1420227050 554.3135
0590 1420229980 556.6512
0591 1420232910 556.2648
0592 1420235839 552.3272
0593 1420238769 549.9694
0594 1420241699 554.5061
0595 1420244628 551.0082
0596 1420247558 545.3101
0597 1420250488 553.6635
0598 1420253417 544.6633
0599 1420256347 546.6699
0600 1420259277 545.4952
0601 1420262207 539.0113
0602 1420265136 541.8276
0603 1420268066 541.8822
0604 1420270996 546.1033
0605 1420273925 541.3901
0606 1420276855 540.9939
0607 1420279785 537.8705
0608 1420282714 537.4203
0609 1420285644 530.2396
0610 1420288574 541.0062
0611 1420291503 536.9187
0612 1420294433 538.0460
0613 1420297363 539.6710
0614 1420300292 538.2267
0615 1420303222 534.9551
0616 1420306152 536.1705
0617 1420309082 531.6567
0618 1420312011 534.5823
0619 1420314941 531.3044
0620 1420317871 531.8750
0621 1420320800 532.5352
0622 1420323730 530.9988
0623 1420326660 531.5264
0624 1420329589 524.8259
0625 1420332519 523.8053
0626 1420335449 520.8942
0627 1420338378 521.8052
0628 1420341308 527.4368
0629 1420344238 527.3966
0630 1420347167 524.5228
0631 1420350097 525.6677
0632 1420353027 527.9019
0633 1420355957 518.9214
0634 1420358886 524.7015
0635 1420361816 514.6244
0636 1420364746 522.9728
0637 1420367675 519.4805
0638 1420370605 520.3768
0639 1420373535 523.9426
0640 1420376464 519.5869
0641 1420379394 511.1061
0642 1420382324 519.9429
0643 1420385253 515.5831
0644 1420388183 512.4609
0645 1420391113 514.6332
0646 1420394042 514.6033
0647 1420396972 512.2714
0648 1420399902 512.9569
0649 1420402832 509.8130
0650 1420405761 505.2639
0651 1420408691 499.5155
0652 1420411621 510.4333
0653 1420414550 511.6900
0654 1420417480 503.4681
0655 1420420410 513.2538
0656 1420423339 501.1642
0657 1420426269 502.9799
0658 1420429199 504.2573
0659 1420432128 506.9987
0660 1420435058 504.1440
0661 1420437988 499.8216
0662 1420440917 499.8897
0663 1420443847 497.5458
0664 1420446777 497.8514
0665 1420449707 500.9241
0666 1420452636 505.2846
0667 1420455566 503.0739
0668 1420458496 498.1211
0669 1420461425 492.7048
0670 1420464355 504.7166
0671 1420467285 503.5447
0672 1420470214 501.9847
0673 1420473144 504.0628
0674 1420476074 497.5284
0675 1420479003 496.3821
0676 1420481933 504.9411
0677 1420484863 504.4504
0678 1420487792 491.2440
0679 1420490722 499.6138
0680 1420493652 494.3359
0681 1420496582 497.8999
0682 1420499511 493.1963
0683 1420502441 494.5831
0684 1420505371 492.6424
0685 1420508300 490.1505
0686 1420511230 495.8174
0687 1420514160 498.2714
0688 1420517089 487.8880
0689 1420520019 497.8487
0690 1420522949 495.1670
0691 1420525878 490.5550
0692 1420528808 490.4291
0693 1420531738 493.4319
0694 1420534667 487.8528
0695 1420537597 492.4544
0696 1420540527 487.2077
0697 1420543457 493.3559
0698 1420546386 490.8871
0699 1420549316 483.7946
0700 1420552246 488.2817
0701 1420555175 496.6869
0702 1420558105 489.4743
0703 1420561035 491.9873
0704 1420563964 491.8525
0705 1420566894 492.7712
0706 1420569824 490.1833
0707 1420572753 494.4895
0708 1420575683 486.3369
0709 1420578613 485.8180
0710 1420581542 486.6524
0711 1420584472 487.6819
0712 1420587402 495.2141
0713 1420590332 486.3256
0714 1420593261 487.5469
0715 1420596191 486.8215
0716 1420599121 487.2239
0717 1420602050 485.7667
0718 1420604980 483.6339
0719 1420607910 487.9478
0720 1420610839 485.3466
0721 1420613769 491.5063
0722 1420616699 482.6708
0723 1420619628 480.5485
0724 1420622558 481.1640
0725 1420625488 485.9946
0726 1420628417 482.0830
0727 1420631347 486.9184
0728 1420634277 480.0387
0729 1420637207 486.8359
0730 1420640136 486.5357
0731 1420643066 479.5764
0732 1420645996 488.4934
0733 1420648925 488.8292
0734 1420651855 485.7301
0735 1420654785 480.8506
0736 1420657714 489.2051
0737 1420660644 483.6564
0738 1420663574 478.7341
0739 1420666503 480.6906
0740 1420669433 479.2368
0741 1420672363 485.7244
0742 1420675292 488.0438
0743 1420678222 487.8937
0744 1420681152 485.6953
0745 1420684082 477.7211
0746 1420687011 486.8281
0747 1420689941 485.9140
0748 1420692871 487.8601
0749 1420695800 484.1971
0750 1420698730 478.1728
0751 1420701660 482.7016
0752 1420704589 478.2566
0753 1420707519 479.4135
0754 1420710449 484.8592
0755 1420713378 487.5201
0756 1420716308 486.9511
0757 1420719238 478.2138
0758 1420722167 486.9769
0759 1420725097 479.3785
0760 1420728027 479.6032
0761 1420730957 480.2203
0762 1420733886 484.6949
0763 1420736816 486.2120
0764 1420739746 485.9097
0765 1420742675 488.5363
0766 1420745605 481.6416
0767 1420748535 481.0558
0768 1420751464 481.2957
0769 1420754394 483.3732
0770 1420757324 490.0712
0771 1420760253 489.2476
0772 1420763183 482.4276
0773 1420766113 484.3258
0774 1420769042 481.2252
0775 1420771972 483.3427
0776 1420774902 482.1461
0777 1420777832 471.6268
0778 1420780761 484.8516
0779 1420783691 481.5259
0780 1420786621 480.4253
0781 1420789550 477.0018
0782 1420792480 481.8467
0783 1420795410 477.7732
0784 1420798339 481.4834
0785 1420801269 487.7305
0786 1420804199 484.6604
0787 1420807128 474.1574
0788 1420810058 475.7339
0789 1420812988 477.3557
0790 1420815917 477.3056
0791 1420818847 475.2235
0792 1420821777 473.8999
0793 1420824707 478.0308
0794 1420827636 469.8174
0795 1420830566 468.3779
0796 1420833496 466.9326
0797 1420836425 478.3433
0798 1420839355 475.3969
0799 1420842285 469.4706
0800 1420845214 473.2888
0801 1420848144 466.3990
0802 1420851074 466.6060
0803 1420854003 469.9623
0804 1420856933 468.1813
0805 1420859863 467.1639
0806 1420862792 469.1604
0807 1420865722 462.7296
0808 1420868652 463.8421
0809 1420871582 463.8896
0810 1420874511 460.4952
0811 1420877441 456.0320
0812 1420880371 457.7124
0813 1420883300 461.6394
0814 1420886230 453.7282
0815 1420889160 457.2916
0816 1420892089 454.9083
0817 1420895019 448.8979
0818 1420897949 454.2496
0819 1420900878 463.3255
0820 1420903808 452.3735
0821 1420906738 446.1454
0822 1420909667 442.6967
0823 1420912597 450.3744
0824 1420915527 443.7493
0825 1420918457 441.9958
0826 1420921386 441.6540
0827 1420924316 445.8600
0828 1420927246 441.7750
0829 1420930175 446.6896
0830 1420933105 433.4571
0831 1420936035 437.7819
0832 1420938964 436.5217
0833 1420941894 436.8835
0834 1420944824 433.7754
0835 1420947753 439.0919
0836 1420950683 437.2639
0837 1420953613 437.0379
0838 1420956542 430.3929
0839 1420959472 431.3083
0840 1420962402 428.1591
0841 1420965332 423.4847
0842 1420968261 417.8252
0843 1420971191 418.8766
0844 1420974121 410.0751
0845 1420977050 418.8381
0846 1420979980 414.1298
0847 1420982910 416.3685
0848 1420985839 409.1389
0849 1420988769 406.4824
0850 1420991699 405.7827
0851 1420994628 413.3872
0852 1420997558 405.0476
0853 1421000488 400.4405
0854 1421003417 397.9612
0855 1421006347 398.1057
0856 1421009277 399.0643
0857 1421012207 390.7035
0858 1421015136 389.1798
0859 1421018066 390.9670
0860 1421020996 388.4851
0861 1421023925 386.5518
0862 1421026855 385.7151
0863 1421029785 379.2293
0864 1421032714 378.6016
0865 1421035644 374.7999
0866 1421038574 373.2491
0867 1421041503 373.7030
0868 1421044433 367.5429
0869 1421047363 365.0795
0870 1421050292 363.5110
0871 1421053222 360.9443
0872 1421056152 359.2946
0873 1421059082 355.0358
0874 1421062011 354.7971
0875 1421064941 351.7457
0876 1421067871 350.5474
0877 1421070800 348.1405
0878 1421073730 346.3952
0879 1421076660 340.9219
0880 1421079589 338.3224
0881 1421082519 335.3308
0882 1421085449 333.9166
0883 1421088378 331.6805
0884 1421091308 332.0988
0885 1421094238 334.3427
0886 1421097167 324.8710
0887 1421100097 317.3336
0888 1421103027 323.4385
0889 1421105957 318.7630
0890 1421108886 313.9650
0891 1421111816 316.9495
0892 1421114746 311.6523
0893 1421117675 307.6794
0894 1421120605 304.5609
0895 1421123535 302.5679
0896 1421126464 299.3550
0897 1421129394 296.8414
0898 1421132324 293.0855
0899 1421135253 294.5880
0900 1421138183 288.5551
0901 1421141113 283.3049
0902 1421144042 280.4679
0903 1421146972 278.3027
0904 1421149902 277.8704
0905 1421152832 280.9551
0906 1421155761 273.2500
0907 1421158691 267.8284
0908 1421161621 265.2986
0909 1421164550 262.5854
0910 1421167480 262.9972
0911 1421170410 261.2384
0912 1421173339 255.6994
0913 1421176269 251.6678
0914 1421179199 247.9449
0915 1421182128 247.3616
0916 1421185058 243.9114
0917 1421187988 240.8692
0918 1421190917 237.2250
0919 1421193847 235.1035
0920 1421196777 232.5444
0921 1421199707 233.0989
0922 1421202636 230.2256
0923 1421205566 226.8232
0924 1421208496 224.6486
0925 1421211425 220.0042
0926 1421214355 214.7376
0927 1421217285 214.6472
0928 1421220214 212.6284
0929 1421223144 209.5823
0930 1421226074 206.5640
0931 1421229003 201.5532
0932 1421231933 202.9089
0933 1421234863 197.8635
0934 1421237792 195.0961
0935 1421240722 192.5332
0936 1421243652 193.6922
0937 1421246582 190.0469
0938 1421249511 184.0576
0939 1421252441 182.2541
0940 1421255371 182.3916
0941 1421258300 180.1470
0942 1421261230 177.2321
0943 1421264160 173.5299
0944 1421267089 171.7600
0945 1421270019 169.4987
0946 1421272949 164.9521
0947 1421275878 162.8795
0948 1421278808 161.0892
0949 1421281738 157.5410
0950 1421284667 156.6686
0951 1421287597 154.5241
0952 1421290527 152.3053
0953 1421293457 151.1737
0954 1421296386 146.7391
0955 1421299316 144.9453
0956 1421302246 143.9636
0957 1421305175 142.3461
0958 1421308105 138.7666
0959 1421311035 137.6123
0960 1421313964 133.4853
0961 1421316894 132.6123
0962 1421319824 130.0088
0963 1421322753 127.8711
0964 1421325683 125.2100
0965 1421328613 124.3068
0966 1421331542 122.3090
0967 1421334472 119.5954
0968 1421337402 116.6026
0969 1421340332 116.9984
0970 1421343261 114.2805
0971 1421346191 114.0515
0972 1421349121 111.3691
0973 1421352050 108.2208
0974 1421354980 105.8818
0975 1421357910 104.8482
0976 1421360839 102.8897
0977 1421363769 102.3242
0978 1421366699 101.3543
0979 1421369628 100.0504
0980 1421372558 98.2033
0981 1421375488 95.8954
0982 1421378417 95.4558
0983 1421381347 92.7131
0984 1421384277 90.8846
0985 1421387207 89.2488
0986 1421390136 87.7205
0987 1421393066 87.0831
0988 1421395996 86.2659
0989 1421398925 84.9499
0990 1421401855 82.3627
0991 1421404785 81.8706
0992 1421407714 80.4974
0993 1421410644 79.7047
0994 1421413574 79.1518
0995 1421416503 77.3962
0996 1421419433 74.6939
0997 1421422363 73.9008
0998 1421425292 73.6064
0999 1421428222 72.8437
1000 1421431152 72.0642
1001 1421434082 71.4969
1002 1421437011 70.9546
1003 1421439941 69.7654
1004 1421442871 69.1414
1005 1421445800 67.9134
1006 1421448730 66.6461
1007 1421451660 65.8014
1008 1421454589 65.0469
1009 1421457519 63.7353
1010 1421460449 64.3940
1011 1421463378 64.5659
1012 1421466308 62.5522
1013 1421469238 62.2281
1014 1421472167 61.2888
1015 1421475097 61.5708
1016 1421478027 61.0416
1017 1421480957 60.3513
1018 1421483886 59.7649
1019 1421486816 59.1227
1020 1421489746 58.8811
1021 1421492675 59.2260
1022 1421495605 58.9885
1023 1421498535 57.6090
