# File: 20-05-29T170611.ast
# NOTEA     = None Attached.  RTLSDR Dongle Test
# NOTEB     = Spectral Integration
# OBSERVER  = Science Aficionado
# DEVICE    = rtl=0,bias=1
# DATADIR   = ../data/
# SITE      = Small Metal Horn - NeSDR Test
# CITY      = Green Bank
# REGION    = West Virginia
# COUNTRY   = US
# TELTYPE   = Bubble Wrap  Horn
# FRAME     = TOPO
# GAIN1     = 40.0
# GAIN2     = 11.0
# GAIN3     = 11.0
# GAIN4     = 0.0
# Count     = 2500
# CenterFreq= 1420000000.0
# Bandwidth = 3000000.0
# Duration  = 21.832892
# DeltaX    = 5859.375
# TSYS      = 200.0
# TRX       = 100.0
# TRMS      = 2.0
# TINT      = 1.0
# KPERC     = 100.0
# GAINFACT  = 1.0
# BUNIT     = Counts
# NCHAN     = 1024
# NSPEC     = 1
# NTIME     = 0
# NSAMPLES  = 0
# EPEAK     = 4.10875183718
# ERMS      = 0.995973393526
# EMJD      = 58568.808999981004 
# REFCHAN   = 512.0
# REFSAMPL  = 256.0
# NAVE      = 50
# NMEDIAN   = 1024
# Fft_rate  = 5000
# UTC       = 2020-05-29 17:06:11.800089
# SECONDS   =       0.0000000000 
# LST       = 04:17:33.750
# AZ        = 180.0
# EL        = 90.0
# TELLON    = -79:50:22.920
# TELLAT    = +38:25:59.160
# RA        = 04:14:52.510
# DEC       = +38:20:08.200
# GALLON    = 160:57:48.20
# GALLAT    = -09:04:50.80
# ALT_SUN   = +73:10:36.4
# AZ_SUN    = +171:24:10.0
# ETAA      = 0.8
# ETAB      = 0.99
# POLANGLE  = 0.0
# TELSIZEAM = 1.0
# TELSIZEBM = 1.0
# AST_VERS  = 05.01
0000 1418501464 15.0895
0001 1418504394 15.0931
0002 1418507324 15.0330
0003 1418510253 14.8995
0004 1418513183 15.0030
0005 1418516113 15.2747
0006 1418519042 15.0804
0007 1418521972 15.2468
0008 1418524902 15.1787
0009 1418527832 15.2596
0010 1418530761 15.0533
0011 1418533691 15.0807
0012 1418536621 15.3125
0013 1418539550 15.3078
0014 1418542480 15.4047
0015 1418545410 15.4416
0016 1418548339 15.7178
0017 1418551269 15.5056
0018 1418554199 15.7429
0019 1418557128 16.0061
0020 1418560058 16.3469
0021 1418562988 16.3616
0022 1418565917 16.5309
0023 1418568847 16.5854
0024 1418571777 16.7676
0025 1418574707 16.9819
0026 1418577636 16.9445
0027 1418580566 17.0128
0028 1418583496 17.2473
0029 1418586425 17.4724
0030 1418589355 18.0910
0031 1418592285 18.1769
0032 1418595214 18.1082
0033 1418598144 18.4688
0034 1418601074 18.5642
0035 1418604003 19.1528
0036 1418606933 19.3290
0037 1418609863 19.3151
0038 1418612792 19.7442
0039 1418615722 19.6612
0040 1418618652 20.3179
0041 1418621582 20.3357
0042 1418624511 20.5628
0043 1418627441 21.0190
0044 1418630371 21.4553
0045 1418633300 21.8269
0046 1418636230 22.3541
0047 1418639160 22.5181
0048 1418642089 22.8442
0049 1418645019 22.9085
0050 1418647949 23.4679
0051 1418650878 23.6570
0052 1418653808 23.8172
0053 1418656738 24.3260
0054 1418659667 24.7806
0055 1418662597 25.1494
0056 1418665527 25.5888
0057 1418668457 25.9827
0058 1418671386 25.8614
0059 1418674316 27.0084
0060 1418677246 26.9147
0061 1418680175 27.1695
0062 1418683105 28.1646
0063 1418686035 28.2287
0064 1418688964 28.5589
0065 1418691894 29.1414
0066 1418694824 30.0313
0067 1418697753 30.2108
0068 1418700683 30.2219
0069 1418703613 30.9527
0070 1418706542 31.4155
0071 1418709472 31.8711
0072 1418712402 32.0071
0073 1418715332 32.6780
0074 1418718261 33.7890
0075 1418721191 33.8404
0076 1418724121 33.9569
0077 1418727050 34.7062
0078 1418729980 35.4937
0079 1418732910 35.7089
0080 1418735839 35.8666
0081 1418738769 36.3063
0082 1418741699 37.2058
0083 1418744628 38.1101
0084 1418747558 38.2594
0085 1418750488 38.6796
0086 1418753417 39.5429
0087 1418756347 39.8453
0088 1418759277 40.6983
0089 1418762207 41.3107
0090 1418765136 41.5038
0091 1418768066 41.6540
0092 1418770996 42.2749
0093 1418773925 42.6813
0094 1418776855 43.4896
0095 1418779785 43.9152
0096 1418782714 44.4704
0097 1418785644 44.8630
0098 1418788574 45.8582
0099 1418791503 46.3727
0100 1418794433 47.2118
0101 1418797363 47.8436
0102 1418800292 47.6622
0103 1418803222 48.9889
0104 1418806152 49.2707
0105 1418809082 49.0968
0106 1418812011 50.5917
0107 1418814941 50.6680
0108 1418817871 51.3919
0109 1418820800 52.2935
0110 1418823730 51.3711
0111 1418826660 52.7628
0112 1418829589 52.6795
0113 1418832519 53.9424
0114 1418835449 54.6823
0115 1418838378 55.4891
0116 1418841308 56.5334
0117 1418844238 56.8683
0118 1418847167 57.7303
0119 1418850097 58.5045
0120 1418853027 57.8075
0121 1418855957 58.9882
0122 1418858886 58.8177
0123 1418861816 59.9243
0124 1418864746 61.0119
0125 1418867675 61.4669
0126 1418870605 62.3369
0127 1418873535 63.2341
0128 1418876464 63.7620
0129 1418879394 64.1643
0130 1418882324 64.2697
0131 1418885253 64.4369
0132 1418888183 65.9543
0133 1418891113 67.0670
0134 1418894042 66.7249
0135 1418896972 67.5375
0136 1418899902 67.2999
0137 1418902832 68.0473
0138 1418905761 68.3985
0139 1418908691 69.2037
0140 1418911621 69.9071
0141 1418914550 69.9911
0142 1418917480 70.4129
0143 1418920410 71.3556
0144 1418923339 72.3779
0145 1418926269 71.8603
0146 1418929199 72.7285
0147 1418932128 73.0717
0148 1418935058 73.4176
0149 1418937988 74.0718
0150 1418940917 75.5188
0151 1418943847 75.7708
0152 1418946777 76.7499
0153 1418949707 75.9168
0154 1418952636 75.6706
0155 1418955566 75.9194
0156 1418958496 77.1151
0157 1418961425 77.9376
0158 1418964355 79.4157
0159 1418967285 80.6215
0160 1418970214 79.9341
0161 1418973144 80.9477
0162 1418976074 80.3149
0163 1418979003 81.1582
0164 1418981933 81.5894
0165 1418984863 82.3644
0166 1418987792 81.9565
0167 1418990722 84.7990
0168 1418993652 82.9778
0169 1418996582 83.9465
0170 1418999511 83.5118
0171 1419002441 85.2620
0172 1419005371 85.3598
0173 1419008300 86.3508
0174 1419011230 87.1398
0175 1419014160 87.1678
0176 1419017089 86.5372
0177 1419020019 89.2141
0178 1419022949 87.3580
0179 1419025878 87.7081
0180 1419028808 89.5193
0181 1419031738 88.6055
0182 1419034667 88.4962
0183 1419037597 90.4846
0184 1419040527 90.3517
0185 1419043457 91.3501
0186 1419046386 92.3276
0187 1419049316 91.6433
0188 1419052246 91.1944
0189 1419055175 92.1388
0190 1419058105 94.0480
0191 1419061035 92.3810
0192 1419063964 92.8065
0193 1419066894 93.4840
0194 1419069824 93.0790
0195 1419072753 93.5539
0196 1419075683 96.2738
0197 1419078613 95.2148
0198 1419081542 94.8430
0199 1419084472 95.0174
0200 1419087402 95.3789
0201 1419090332 95.9756
0202 1419093261 95.8872
0203 1419096191 96.5746
0204 1419099121 96.8189
0205 1419102050 96.6747
0206 1419104980 97.3877
0207 1419107910 96.6722
0208 1419110839 98.2214
0209 1419113769 98.7144
0210 1419116699 97.9657
0211 1419119628 99.3923
0212 1419122558 100.1222
0213 1419125488 100.0085
0214 1419128417 100.4351
0215 1419131347 99.5457
0216 1419134277 100.6591
0217 1419137207 98.4140
0218 1419140136 101.0361
0219 1419143066 99.8210
0220 1419145996 101.4675
0221 1419148925 102.2566
0222 1419151855 101.0234
0223 1419154785 102.3562
0224 1419157714 100.7589
0225 1419160644 100.4143
0226 1419163574 100.8730
0227 1419166503 102.1257
0228 1419169433 101.7780
0229 1419172363 102.5140
0230 1419175292 102.7940
0231 1419178222 103.0151
0232 1419181152 102.5477
0233 1419184082 102.7941
0234 1419187011 102.7321
0235 1419189941 104.6901
0236 1419192871 104.7198
0237 1419195800 103.2657
0238 1419198730 103.7402
0239 1419201660 104.4013
0240 1419204589 104.2244
0241 1419207519 103.9790
0242 1419210449 104.3426
0243 1419213378 104.4244
0244 1419216308 105.1530
0245 1419219238 105.5073
0246 1419222167 103.7908
0247 1419225097 103.6171
0248 1419228027 104.3252
0249 1419230957 105.5888
0250 1419233886 104.3398
0251 1419236816 106.1113
0252 1419239746 106.5742
0253 1419242675 106.1574
0254 1419245605 106.4559
0255 1419248535 106.6249
0256 1419251464 105.8323
0257 1419254394 105.9477
0258 1419257324 107.2084
0259 1419260253 105.0167
0260 1419263183 105.8854
0261 1419266113 105.8432
0262 1419269042 107.3469
0263 1419271972 107.3848
0264 1419274902 107.8186
0265 1419277832 106.1722
0266 1419280761 107.3160
0267 1419283691 105.8408
0268 1419286621 107.1865
0269 1419289550 107.5672
0270 1419292480 108.1451
0271 1419295410 107.1936
0272 1419298339 107.0773
0273 1419301269 107.8594
0274 1419304199 105.9383
0275 1419307128 106.8852
0276 1419310058 109.2669
0277 1419312988 107.5939
0278 1419315917 108.6112
0279 1419318847 107.9968
0280 1419321777 107.6668
0281 1419324707 108.2815
0282 1419327636 108.1330
0283 1419330566 107.0330
0284 1419333496 107.4650
0285 1419336425 107.6996
0286 1419339355 108.2872
0287 1419342285 107.2623
0288 1419345214 106.4145
0289 1419348144 106.1476
0290 1419351074 107.9754
0291 1419354003 108.7367
0292 1419356933 107.8395
0293 1419359863 108.2865
0294 1419362792 107.5898
0295 1419365722 109.2597
0296 1419368652 109.4916
0297 1419371582 109.6047
0298 1419374511 109.2163
0299 1419377441 108.8176
0300 1419380371 109.9963
0301 1419383300 109.9610
0302 1419386230 108.6270
0303 1419389160 109.2284
0304 1419392089 109.9058
0305 1419395019 110.1269
0306 1419397949 111.0758
0307 1419400878 109.5356
0308 1419403808 110.4148
0309 1419406738 107.8247
0310 1419409667 109.1005
0311 1419412597 110.3124
0312 1419415527 109.2001
0313 1419418457 109.1578
0314 1419421386 110.4175
0315 1419424316 111.1297
0316 1419427246 110.7898
0317 1419430175 110.3790
0318 1419433105 110.9432
0319 1419436035 110.6393
0320 1419438964 110.4774
0321 1419441894 111.1553
0322 1419444824 110.7862
0323 1419447753 112.2747
0324 1419450683 111.4354
0325 1419453613 111.8915
0326 1419456542 112.6126
0327 1419459472 110.7246
0328 1419462402 112.5220
0329 1419465332 110.9501
0330 1419468261 111.1851
0331 1419471191 113.7230
0332 1419474121 111.9355
0333 1419477050 112.8174
0334 1419479980 114.8361
0335 1419482910 112.9364
0336 1419485839 112.1450
0337 1419488769 115.6475
0338 1419491699 114.0488
0339 1419494628 112.9433
0340 1419497558 113.3117
0341 1419500488 114.1190
0342 1419503417 113.9415
0343 1419506347 113.7076
0344 1419509277 113.7160
0345 1419512207 115.4444
0346 1419515136 116.5347
0347 1419518066 115.9260
0348 1419520996 115.6151
0349 1419523925 114.2568
0350 1419526855 115.8530
0351 1419529785 115.2656
0352 1419532714 118.7367
0353 1419535644 115.2588
0354 1419538574 115.3830
0355 1419541503 115.2389
0356 1419544433 115.2425
0357 1419547363 117.2707
0358 1419550292 116.9911
0359 1419553222 114.7793
0360 1419556152 116.5795
0361 1419559082 116.7852
0362 1419562011 117.8047
0363 1419564941 117.8567
0364 1419567871 118.4221
0365 1419570800 116.8254
0366 1419573730 119.1465
0367 1419576660 117.6300
0368 1419579589 119.8347
0369 1419582519 120.4013
0370 1419585449 120.1042
0371 1419588378 119.7482
0372 1419591308 119.9842
0373 1419594238 119.4088
0374 1419597167 119.1967
0375 1419600097 120.0746
0376 1419603027 120.7987
0377 1419605957 122.4316
0378 1419608886 121.0514
0379 1419611816 121.5919
0380 1419614746 120.7635
0381 1419617675 121.4249
0382 1419620605 122.6941
0383 1419623535 122.2155
0384 1419626464 122.4717
0385 1419629394 123.5740
0386 1419632324 122.7802
0387 1419635253 124.5656
0388 1419638183 122.4106
0389 1419641113 124.2503
0390 1419644042 124.1473
0391 1419646972 122.5767
0392 1419649902 123.5796
0393 1419652832 124.1248
0394 1419655761 129.1127
0395 1419658691 126.4696
0396 1419661621 125.0162
0397 1419664550 126.5667
0398 1419667480 125.4733
0399 1419670410 126.0526
0400 1419673339 126.9558
0401 1419676269 126.9501
0402 1419679199 127.8964
0403 1419682128 128.5996
0404 1419685058 125.8913
0405 1419687988 126.8051
0406 1419690917 127.3371
0407 1419693847 126.7211
0408 1419696777 128.4759
0409 1419699707 129.7975
0410 1419702636 130.5876
0411 1419705566 128.9175
0412 1419708496 130.3372
0413 1419711425 129.2252
0414 1419714355 130.2253
0415 1419717285 131.7478
0416 1419720214 129.8997
0417 1419723144 131.5965
0418 1419726074 129.3971
0419 1419729003 132.3511
0420 1419731933 133.4583
0421 1419734863 133.6407
0422 1419737792 130.4304
0423 1419740722 132.8061
0424 1419743652 131.2970
0425 1419746582 132.3687
0426 1419749511 133.7843
0427 1419752441 132.8375
0428 1419755371 132.7340
0429 1419758300 133.4311
0430 1419761230 135.2424
0431 1419764160 134.6512
0432 1419767089 134.4789
0433 1419770019 135.5947
0434 1419772949 134.6700
0435 1419775878 135.6987
0436 1419778808 137.1991
0437 1419781738 137.1928
0438 1419784667 136.4686
0439 1419787597 136.4737
0440 1419790527 136.7578
0441 1419793457 136.6843
0442 1419796386 137.1685
0443 1419799316 137.9857
0444 1419802246 137.9668
0445 1419805175 140.2086
0446 1419808105 138.7976
0447 1419811035 137.5625
0448 1419813964 138.6160
0449 1419816894 139.0163
0450 1419819824 140.4544
0451 1419822753 141.3278
0452 1419825683 141.1589
0453 1419828613 138.6740
0454 1419831542 138.4361
0455 1419834472 141.1823
0456 1419837402 138.9667
0457 1419840332 139.3470
0458 1419843261 142.9652
0459 1419846191 141.6647
0460 1419849121 140.6075
0461 1419852050 143.0772
0462 1419854980 143.5461
0463 1419857910 142.4376
0464 1419860839 142.4505
0465 1419863769 143.6554
0466 1419866699 143.2455
0467 1419869628 144.9790
0468 1419872558 145.1726
0469 1419875488 144.2043
0470 1419878417 144.3226
0471 1419881347 143.5027
0472 1419884277 144.7325
0473 1419887207 146.7456
0474 1419890136 146.2014
0475 1419893066 145.7774
0476 1419895996 145.8071
0477 1419898925 146.7928
0478 1419901855 147.4097
0479 1419904785 146.1859
0480 1419907714 146.9888
0481 1419910644 146.4156
0482 1419913574 145.7940
0483 1419916503 147.7462
0484 1419919433 148.0160
0485 1419922363 147.1878
0486 1419925292 146.6106
0487 1419928222 147.2945
0488 1419931152 148.4747
0489 1419934082 146.5583
0490 1419937011 147.4664
0491 1419939941 149.3502
0492 1419942871 148.9183
0493 1419945800 150.9297
0494 1419948730 150.1401
0495 1419951660 150.6166
0496 1419954589 151.3135
0497 1419957519 151.5067
0498 1419960449 153.1201
0499 1419963378 152.1105
0500 1419966308 151.0639
0501 1419969238 152.6950
0502 1419972167 152.8387
0503 1419975097 154.5379
0504 1419978027 155.2251
0505 1419980957 154.1305
0506 1419983886 156.0123
0507 1419986816 158.1072
0508 1419989746 159.1098
0509 1419992675 162.5862
0510 1419995605 168.8590
0511 1419998535 197.6760
0512 1420001464 247.4308
0513 1420004394 190.5227
0514 1420007324 169.0055
0515 1420010253 163.2323
0516 1420013183 161.6616
0517 1420016113 157.8045
0518 1420019042 156.9473
0519 1420021972 156.1640
0520 1420024902 153.9320
0521 1420027832 152.8492
0522 1420030761 155.1102
0523 1420033691 152.8022
0524 1420036621 153.7520
0525 1420039550 154.3036
0526 1420042480 151.4537
0527 1420045410 149.3805
0528 1420048339 150.7375
0529 1420051269 150.7505
0530 1420054199 150.8725
0531 1420057128 152.5495
0532 1420060058 153.1565
0533 1420062988 152.5029
0534 1420065917 150.7762
0535 1420068847 152.4295
0536 1420071777 151.1736
0537 1420074707 150.1420
0538 1420077636 150.3641
0539 1420080566 149.3581
0540 1420083496 148.9796
0541 1420086425 150.3134
0542 1420089355 151.7201
0543 1420092285 149.8510
0544 1420095214 150.1291
0545 1420098144 149.0740
0546 1420101074 150.3095
0547 1420104003 151.3878
0548 1420106933 150.3126
0549 1420109863 150.0274
0550 1420112792 149.9226
0551 1420115722 149.0541
0552 1420118652 148.8693
0553 1420121582 148.8953
0554 1420124511 149.4604
0555 1420127441 148.1411
0556 1420130371 149.5398
0557 1420133300 150.8512
0558 1420136230 148.1196
0559 1420139160 149.7951
0560 1420142089 150.0938
0561 1420145019 148.8572
0562 1420147949 149.5819
0563 1420150878 147.8651
0564 1420153808 148.4194
0565 1420156738 147.3110
0566 1420159667 148.8646
0567 1420162597 148.1382
0568 1420165527 149.3495
0569 1420168457 151.0254
0570 1420171386 149.2591
0571 1420174316 148.2688
0572 1420177246 146.2335
0573 1420180175 146.1780
0574 1420183105 146.5239
0575 1420186035 145.7761
0576 1420188964 146.6372
0577 1420191894 145.8493
0578 1420194824 146.1863
0579 1420197753 147.0740
0580 1420200683 147.4698
0581 1420203613 149.9332
0582 1420206542 147.5271
0583 1420209472 147.8669
0584 1420212402 148.1805
0585 1420215332 147.4021
0586 1420218261 147.4394
0587 1420221191 147.7149
0588 1420224121 146.9635
0589 1420227050 147.6029
0590 1420229980 148.7501
0591 1420232910 148.5968
0592 1420235839 147.8480
0593 1420238769 147.8649
0594 1420241699 147.4427
0595 1420244628 148.4377
0596 1420247558 148.9384
0597 1420250488 148.1217
0598 1420253417 150.2080
0599 1420256347 149.0451
0600 1420259277 147.8219
0601 1420262207 148.5316
0602 1420265136 147.9754
0603 1420268066 150.3103
0604 1420270996 150.0325
0605 1420273925 149.5569
0606 1420276855 150.7451
0607 1420279785 151.6687
0608 1420282714 149.9699
0609 1420285644 150.5258
0610 1420288574 150.4672
0611 1420291503 152.3785
0612 1420294433 151.6124
0613 1420297363 152.1165
0614 1420300292 153.7462
0615 1420303222 153.1248
0616 1420306152 151.2498
0617 1420309082 153.0876
0618 1420312011 150.3327
0619 1420314941 151.1073
0620 1420317871 152.9179
0621 1420320800 151.5415
0622 1420323730 150.8607
0623 1420326660 151.8962
0624 1420329589 151.9982
0625 1420332519 151.7886
0626 1420335449 150.4117
0627 1420338378 150.7613
0628 1420341308 152.3889
0629 1420344238 152.8084
0630 1420347167 148.2236
0631 1420350097 149.4778
0632 1420353027 149.9310
0633 1420355957 151.2267
0634 1420358886 149.9787
0635 1420361816 149.8000
0636 1420364746 150.2397
0637 1420367675 148.7231
0638 1420370605 149.3247
0639 1420373535 149.1015
0640 1420376464 148.6530
0641 1420379394 146.4566
0642 1420382324 146.4827
0643 1420385253 148.4125
0644 1420388183 148.7585
0645 1420391113 147.3486
0646 1420394042 148.4507
0647 1420396972 145.7708
0648 1420399902 147.4651
0649 1420402832 146.9165
0650 1420405761 147.8870
0651 1420408691 144.5960
0652 1420411621 146.3278
0653 1420414550 144.4271
0654 1420417480 143.6451
0655 1420420410 144.5420
0656 1420423339 145.8188
0657 1420426269 144.2511
0658 1420429199 143.9416
0659 1420432128 143.9019
0660 1420435058 141.9567
0661 1420437988 141.1183
0662 1420440917 139.9120
0663 1420443847 140.9946
0664 1420446777 140.8738
0665 1420449707 141.3201
0666 1420452636 138.1361
0667 1420455566 138.8251
0668 1420458496 140.4857
0669 1420461425 140.7188
0670 1420464355 138.7818
0671 1420467285 137.7179
0672 1420470214 138.9485
0673 1420473144 137.3315
0674 1420476074 137.1083
0675 1420479003 135.4387
0676 1420481933 137.5920
0677 1420484863 135.3479
0678 1420487792 135.5249
0679 1420490722 136.3049
0680 1420493652 135.2130
0681 1420496582 133.9038
0682 1420499511 134.3764
0683 1420502441 134.9171
0684 1420505371 134.5109
0685 1420508300 132.9315
0686 1420511230 131.7175
0687 1420514160 132.7722
0688 1420517089 132.1988
0689 1420520019 130.7164
0690 1420522949 132.2252
0691 1420525878 133.4488
0692 1420528808 133.3900
0693 1420531738 132.8222
0694 1420534667 131.9526
0695 1420537597 131.2539
0696 1420540527 131.3260
0697 1420543457 130.5176
0698 1420546386 131.1536
0699 1420549316 130.0034
0700 1420552246 128.8919
0701 1420555175 129.9131
0702 1420558105 130.8697
0703 1420561035 129.9315
0704 1420563964 130.4816
0705 1420566894 130.5905
0706 1420569824 127.6039
0707 1420572753 129.0249
0708 1420575683 128.4940
0709 1420578613 126.4083
0710 1420581542 127.7013
0711 1420584472 127.8349
0712 1420587402 128.6722
0713 1420590332 129.7908
0714 1420593261 127.2434
0715 1420596191 126.9060
0716 1420599121 126.5197
0717 1420602050 127.4288
0718 1420604980 125.9052
0719 1420607910 126.3388
0720 1420610839 126.3724
0721 1420613769 126.4249
0722 1420616699 125.7226
0723 1420619628 124.7203
0724 1420622558 126.2269
0725 1420625488 127.4037
0726 1420628417 126.4794
0727 1420631347 123.6852
0728 1420634277 126.4620
0729 1420637207 125.0683
0730 1420640136 125.9356
0731 1420643066 124.4040
0732 1420645996 126.2126
0733 1420648925 124.6627
0734 1420651855 126.3161
0735 1420654785 124.9811
0736 1420657714 125.2297
0737 1420660644 124.7991
0738 1420663574 124.6914
0739 1420666503 125.6562
0740 1420669433 124.7023
0741 1420672363 125.2719
0742 1420675292 125.5733
0743 1420678222 124.7837
0744 1420681152 123.2314
0745 1420684082 126.0139
0746 1420687011 124.8706
0747 1420689941 124.5960
0748 1420692871 124.9857
0749 1420695800 124.2660
0750 1420698730 124.1292
0751 1420701660 124.0337
0752 1420704589 123.8948
0753 1420707519 124.1013
0754 1420710449 125.2074
0755 1420713378 123.7774
0756 1420716308 123.5454
0757 1420719238 121.5960
0758 1420722167 123.4432
0759 1420725097 121.3089
0760 1420728027 122.0892
0761 1420730957 123.7968
0762 1420733886 122.4597
0763 1420736816 123.1509
0764 1420739746 122.6945
0765 1420742675 122.6117
0766 1420745605 122.3686
0767 1420748535 121.7453
0768 1420751464 122.2557
0769 1420754394 122.6139
0770 1420757324 121.5216
0771 1420760253 122.1553
0772 1420763183 120.4637
0773 1420766113 122.6935
0774 1420769042 122.8737
0775 1420771972 121.2851
0776 1420774902 120.4582
0777 1420777832 120.7429
0778 1420780761 119.9118
0779 1420783691 121.9253
0780 1420786621 122.3164
0781 1420789550 120.3665
0782 1420792480 120.9618
0783 1420795410 121.5781
0784 1420798339 121.8465
0785 1420801269 130.0162
0786 1420804199 122.8780
0787 1420807128 120.7403
0788 1420810058 120.6272
0789 1420812988 120.7705
0790 1420815917 121.3458
0791 1420818847 119.0955
0792 1420821777 118.8828
0793 1420824707 119.8254
0794 1420827636 119.2636
0795 1420830566 118.5445
0796 1420833496 118.5450
0797 1420836425 120.0556
0798 1420839355 119.6449
0799 1420842285 117.8415
0800 1420845214 118.3901
0801 1420848144 117.4210
0802 1420851074 117.1389
0803 1420854003 116.9155
0804 1420856933 117.7022
0805 1420859863 117.7821
0806 1420862792 116.0952
0807 1420865722 118.3601
0808 1420868652 116.3417
0809 1420871582 117.3086
0810 1420874511 116.0583
0811 1420877441 116.9103
0812 1420880371 116.3569
0813 1420883300 114.4072
0814 1420886230 116.7439
0815 1420889160 115.4655
0816 1420892089 114.2782
0817 1420895019 115.0055
0818 1420897949 114.1720
0819 1420900878 114.2128
0820 1420903808 111.7398
0821 1420906738 112.9378
0822 1420909667 113.0096
0823 1420912597 112.0154
0824 1420915527 113.0122
0825 1420918457 111.1892
0826 1420921386 110.6143
0827 1420924316 110.6390
0828 1420927246 111.1725
0829 1420930175 111.5891
0830 1420933105 111.4646
0831 1420936035 110.7721
0832 1420938964 110.5466
0833 1420941894 109.0704
0834 1420944824 108.1280
0835 1420947753 108.2538
0836 1420950683 107.7250
0837 1420953613 107.8691
0838 1420956542 107.6645
0839 1420959472 105.4460
0840 1420962402 107.0229
0841 1420965332 106.2271
0842 1420968261 106.1025
0843 1420971191 106.5687
0844 1420974121 105.7945
0845 1420977050 106.0592
0846 1420979980 104.0782
0847 1420982910 104.8141
0848 1420985839 105.2424
0849 1420988769 103.1966
0850 1420991699 103.3321
0851 1420994628 101.7649
0852 1420997558 101.7872
0853 1421000488 100.5823
0854 1421003417 100.8663
0855 1421006347 99.9094
0856 1421009277 98.4346
0857 1421012207 100.5655
0858 1421015136 97.8728
0859 1421018066 97.9675
0860 1421020996 98.2751
0861 1421023925 95.3913
0862 1421026855 94.9117
0863 1421029785 95.5406
0864 1421032714 94.0068
0865 1421035644 94.5111
0866 1421038574 93.4915
0867 1421041503 93.7377
0868 1421044433 93.3952
0869 1421047363 93.6864
0870 1421050292 91.9592
0871 1421053222 91.3538
0872 1421056152 90.6483
0873 1421059082 89.9809
0874 1421062011 89.7300
0875 1421064941 88.1072
0876 1421067871 86.5081
0877 1421070800 87.2835
0878 1421073730 86.7114
0879 1421076660 86.6982
0880 1421079589 85.2103
0881 1421082519 84.3843
0882 1421085449 85.1757
0883 1421088378 83.2112
0884 1421091308 83.0800
0885 1421094238 82.5570
0886 1421097167 82.5428
0887 1421100097 81.3345
0888 1421103027 79.9721
0889 1421105957 79.1814
0890 1421108886 78.9618
0891 1421111816 78.7691
0892 1421114746 78.1227
0893 1421117675 77.2214
0894 1421120605 76.4860
0895 1421123535 76.0479
0896 1421126464 75.3627
0897 1421129394 74.6534
0898 1421132324 74.2504
0899 1421135253 72.9726
0900 1421138183 72.4688
0901 1421141113 72.5273
0902 1421144042 70.5638
0903 1421146972 70.4744
0904 1421149902 69.0573
0905 1421152832 68.6056
0906 1421155761 67.6039
0907 1421158691 68.4981
0908 1421161621 66.1700
0909 1421164550 65.0916
0910 1421167480 65.3107
0911 1421170410 64.6538
0912 1421173339 63.1471
0913 1421176269 63.1695
0914 1421179199 62.6196
0915 1421182128 62.7514
0916 1421185058 60.8560
0917 1421187988 60.0598
0918 1421190917 59.6969
0919 1421193847 60.2994
0920 1421196777 58.3651
0921 1421199707 58.0822
0922 1421202636 56.7271
0923 1421205566 56.8606
0924 1421208496 56.6568
0925 1421211425 55.7079
0926 1421214355 54.7700
0927 1421217285 54.2762
0928 1421220214 53.6956
0929 1421223144 52.6924
0930 1421226074 51.9004
0931 1421229003 50.8554
0932 1421231933 50.5175
0933 1421234863 50.4937
0934 1421237792 49.4156
0935 1421240722 48.6152
0936 1421243652 48.2511
0937 1421246582 47.8902
0938 1421249511 46.7574
0939 1421252441 45.9179
0940 1421255371 44.9578
0941 1421258300 44.1441
0942 1421261230 43.7427
0943 1421264160 43.3731
0944 1421267089 43.0653
0945 1421270019 42.2987
0946 1421272949 41.7425
0947 1421275878 41.2722
0948 1421278808 40.5395
0949 1421281738 40.1725
0950 1421284667 39.4434
0951 1421287597 38.4954
0952 1421290527 38.3230
0953 1421293457 38.1339
0954 1421296386 37.2525
0955 1421299316 36.6647
0956 1421302246 36.5278
0957 1421305175 35.5577
0958 1421308105 35.1076
0959 1421311035 34.3265
0960 1421313964 33.9790
0961 1421316894 33.4013
0962 1421319824 32.8994
0963 1421322753 32.2592
0964 1421325683 31.7637
0965 1421328613 30.8186
0966 1421331542 30.7006
0967 1421334472 30.1522
0968 1421337402 29.6637
0969 1421340332 29.0972
0970 1421343261 28.9831
0971 1421346191 28.5120
0972 1421349121 27.8653
0973 1421352050 27.1287
0974 1421354980 26.7457
0975 1421357910 26.5583
0976 1421360839 26.1533
0977 1421363769 25.9781
0978 1421366699 25.3930
0979 1421369628 24.5568
0980 1421372558 24.7212
0981 1421375488 24.5652
0982 1421378417 23.9226
0983 1421381347 23.3492
0984 1421384277 22.9971
0985 1421387207 22.5766
0986 1421390136 22.2416
0987 1421393066 22.1805
0988 1421395996 21.6585
0989 1421398925 21.5155
0990 1421401855 21.2440
0991 1421404785 20.8969
0992 1421407714 20.2530
0993 1421410644 20.3665
0994 1421413574 20.1608
0995 1421416503 20.0360
0996 1421419433 19.5413
0997 1421422363 19.1468
0998 1421425292 18.8046
0999 1421428222 18.5766
1000 1421431152 18.3203
1001 1421434082 18.0431
1002 1421437011 17.7595
1003 1421439941 17.4335
1004 1421442871 17.3245
1005 1421445800 17.2928
1006 1421448730 17.0657
1007 1421451660 17.0302
1008 1421454589 16.7188
1009 1421457519 16.5599
1010 1421460449 16.2030
1011 1421463378 16.1301
1012 1421466308 16.0004
1013 1421469238 16.0178
1014 1421472167 15.6742
1015 1421475097 15.7781
1016 1421478027 15.6989
1017 1421480957 15.5205
1018 1421483886 15.5230
1019 1421486816 15.4913
1020 1421489746 15.4798
1021 1421492675 15.5049
1022 1421495605 15.1628
1023 1421498535 15.2925
