# File: 20-05-29T170717.ast
# NOTEA     = None Attached.  RTLSDR Dongle Test
# NOTEB     = Spectral Integration
# OBSERVER  = Science Aficionado
# DEVICE    = rtl=0,bias=1
# DATADIR   = ../data/
# SITE      = Small Metal Horn - NeSDR Test
# CITY      = Green Bank
# REGION    = West Virginia
# COUNTRY   = US
# TELTYPE   = Bubble Wrap  Horn
# FRAME     = TOPO
# GAIN1     = 40.0
# GAIN2     = 11.0
# GAIN3     = 11.0
# GAIN4     = 0.0
# Count     = 2500
# CenterFreq= 1420000000.0
# Bandwidth = 3000000.0
# Duration  = 21.859447
# DeltaX    = 5859.375
# TSYS      = 200.0
# TRX       = 100.0
# TRMS      = 2.0
# TINT      = 1.0
# KPERC     = 100.0
# GAINFACT  = 1.0
# BUNIT     = Counts
# NCHAN     = 1024
# NSPEC     = 1
# NTIME     = 0
# NSAMPLES  = 0
# EPEAK     = 4.10875183718
# ERMS      = 0.995973393526
# EMJD      = 58568.808999981004 
# REFCHAN   = 512.0
# REFSAMPL  = 256.0
# NAVE      = 50
# NMEDIAN   = 1024
# Fft_rate  = 5000
# UTC       = 2020-05-29 17:07:17.337451
# SECONDS   =       0.0000000000 
# LST       = 04:18:39.460
# AZ        = 180.0
# EL        = 90.0
# TELLON    = -79:50:22.920
# TELLAT    = +38:25:59.160
# RA        = 04:15:58.140
# DEC       = +38:20:11.600
# GALLON    = 161:07:03.90
# GALLAT    = -08:55:47.70
# ALT_SUN   = +73:12:26.1
# AZ_SUN    = +172:16:23.5
# ETAA      = 0.8
# ETAB      = 0.99
# POLANGLE  = 0.0
# TELSIZEAM = 1.0
# TELSIZEBM = 1.0
# AST_VERS  = 05.01
0000 1418501464 14.8606
0001 1418504394 15.0501
0002 1418507324 15.0233
0003 1418510253 15.0473
0004 1418513183 15.0242
0005 1418516113 14.9520
0006 1418519042 15.1667
0007 1418521972 15.2732
0008 1418524902 15.0362
0009 1418527832 15.0582
0010 1418530761 15.1738
0011 1418533691 15.0992
0012 1418536621 15.3769
0013 1418539550 15.2952
0014 1418542480 15.4011
0015 1418545410 15.4298
0016 1418548339 15.5175
0017 1418551269 15.6240
0018 1418554199 15.8774
0019 1418557128 15.9707
0020 1418560058 16.2857
0021 1418562988 16.2384
0022 1418565917 16.3531
0023 1418568847 16.5213
0024 1418571777 16.7919
0025 1418574707 16.8110
0026 1418577636 17.0109
0027 1418580566 17.0437
0028 1418583496 17.5791
0029 1418586425 17.7507
0030 1418589355 17.9387
0031 1418592285 18.0244
0032 1418595214 18.2241
0033 1418598144 18.2619
0034 1418601074 18.4544
0035 1418604003 18.8024
0036 1418606933 19.2318
0037 1418609863 19.5540
0038 1418612792 19.7049
0039 1418615722 20.0657
0040 1418618652 20.1991
0041 1418621582 20.1943
0042 1418624511 20.7657
0043 1418627441 20.9824
0044 1418630371 21.5051
0045 1418633300 21.6716
0046 1418636230 22.0672
0047 1418639160 22.3387
0048 1418642089 22.6703
0049 1418645019 23.1036
0050 1418647949 23.5321
0051 1418650878 23.8624
0052 1418653808 24.0246
0053 1418656738 24.1138
0054 1418659667 25.0056
0055 1418662597 24.8919
0056 1418665527 25.2410
0057 1418668457 25.9637
0058 1418671386 26.5038
0059 1418674316 26.7597
0060 1418677246 26.9711
0061 1418680175 27.1410
0062 1418683105 27.7140
0063 1418686035 28.1284
0064 1418688964 28.4982
0065 1418691894 29.0645
0066 1418694824 29.9462
0067 1418697753 30.5419
0068 1418700683 30.6418
0069 1418703613 30.7448
0070 1418706542 31.3635
0071 1418709472 31.8460
0072 1418712402 32.4513
0073 1418715332 33.3181
0074 1418718261 32.8130
0075 1418721191 33.8533
0076 1418724121 34.5859
0077 1418727050 34.9814
0078 1418729980 35.2685
0079 1418732910 35.5644
0080 1418735839 36.6454
0081 1418738769 36.6598
0082 1418741699 37.3298
0083 1418744628 38.0565
0084 1418747558 38.4076
0085 1418750488 38.8318
0086 1418753417 39.2249
0087 1418756347 39.3129
0088 1418759277 39.4969
0089 1418762207 40.8869
0090 1418765136 41.4003
0091 1418768066 42.5170
0092 1418770996 42.5911
0093 1418773925 43.1257
0094 1418776855 43.6974
0095 1418779785 44.2723
0096 1418782714 44.5366
0097 1418785644 45.1764
0098 1418788574 45.6981
0099 1418791503 46.4188
0100 1418794433 47.0678
0101 1418797363 47.6492
0102 1418800292 48.0839
0103 1418803222 48.9097
0104 1418806152 48.7584
0105 1418809082 49.8446
0106 1418812011 50.5700
0107 1418814941 51.3308
0108 1418817871 51.6620
0109 1418820800 52.7721
0110 1418823730 52.9047
0111 1418826660 52.7287
0112 1418829589 52.9020
0113 1418832519 53.8395
0114 1418835449 55.1689
0115 1418838378 55.6867
0116 1418841308 55.7607
0117 1418844238 56.3837
0118 1418847167 57.3129
0119 1418850097 57.7079
0120 1418853027 58.2094
0121 1418855957 58.8909
0122 1418858886 59.6005
0123 1418861816 59.5572
0124 1418864746 60.0720
0125 1418867675 61.2175
0126 1418870605 61.9035
0127 1418873535 62.4285
0128 1418876464 62.5949
0129 1418879394 63.6991
0130 1418882324 64.5469
0131 1418885253 64.2906
0132 1418888183 64.6524
0133 1418891113 66.2572
0134 1418894042 65.7442
0135 1418896972 66.6784
0136 1418899902 67.0816
0137 1418902832 68.1217
0138 1418905761 69.3304
0139 1418908691 68.2472
0140 1418911621 70.2045
0141 1418914550 70.4716
0142 1418917480 71.2251
0143 1418920410 72.1206
0144 1418923339 72.3948
0145 1418926269 72.8089
0146 1418929199 73.0999
0147 1418932128 74.2100
0148 1418935058 73.6782
0149 1418937988 74.8575
0150 1418940917 75.9852
0151 1418943847 74.8286
0152 1418946777 76.6285
0153 1418949707 77.7196
0154 1418952636 76.7970
0155 1418955566 76.7210
0156 1418958496 77.8846
0157 1418961425 78.0823
0158 1418964355 78.3638
0159 1418967285 78.5257
0160 1418970214 79.6648
0161 1418973144 80.4785
0162 1418976074 80.4487
0163 1418979003 81.9115
0164 1418981933 83.3161
0165 1418984863 83.1954
0166 1418987792 83.2626
0167 1418990722 83.1949
0168 1418993652 85.5770
0169 1418996582 85.1345
0170 1418999511 85.4749
0171 1419002441 85.0018
0172 1419005371 84.9759
0173 1419008300 84.6246
0174 1419011230 85.8934
0175 1419014160 87.3294
0176 1419017089 87.6769
0177 1419020019 87.4970
0178 1419022949 88.7020
0179 1419025878 88.7938
0180 1419028808 89.4847
0181 1419031738 89.4379
0182 1419034667 89.5879
0183 1419037597 89.8110
0184 1419040527 89.5439
0185 1419043457 90.3643
0186 1419046386 92.2700
0187 1419049316 90.9206
0188 1419052246 91.3093
0189 1419055175 92.1010
0190 1419058105 91.6317
0191 1419061035 92.7472
0192 1419063964 94.0191
0193 1419066894 94.0550
0194 1419069824 93.6597
0195 1419072753 92.3538
0196 1419075683 94.6308
0197 1419078613 95.3042
0198 1419081542 95.6472
0199 1419084472 94.7472
0200 1419087402 95.7982
0201 1419090332 96.5623
0202 1419093261 97.2163
0203 1419096191 97.2812
0204 1419099121 98.2476
0205 1419102050 97.4806
0206 1419104980 97.8682
0207 1419107910 98.6464
0208 1419110839 98.7521
0209 1419113769 98.9502
0210 1419116699 99.3680
0211 1419119628 99.9159
0212 1419122558 100.1786
0213 1419125488 99.0291
0214 1419128417 100.1116
0215 1419131347 100.3259
0216 1419134277 100.7315
0217 1419137207 101.1398
0218 1419140136 100.8103
0219 1419143066 101.9020
0220 1419145996 101.1334
0221 1419148925 102.6949
0222 1419151855 102.7606
0223 1419154785 102.3156
0224 1419157714 102.4344
0225 1419160644 103.1106
0226 1419163574 101.2957
0227 1419166503 101.2813
0228 1419169433 101.9310
0229 1419172363 102.9873
0230 1419175292 102.8524
0231 1419178222 102.0752
0232 1419181152 103.1955
0233 1419184082 101.4028
0234 1419187011 102.4754
0235 1419189941 103.4628
0236 1419192871 102.9530
0237 1419195800 105.1586
0238 1419198730 103.4580
0239 1419201660 104.6673
0240 1419204589 103.9052
0241 1419207519 105.9493
0242 1419210449 105.0527
0243 1419213378 105.2241
0244 1419216308 103.5968
0245 1419219238 104.4250
0246 1419222167 105.8925
0247 1419225097 103.8254
0248 1419228027 105.7934
0249 1419230957 104.5642
0250 1419233886 104.9557
0251 1419236816 106.0275
0252 1419239746 104.9708
0253 1419242675 106.1579
0254 1419245605 106.2055
0255 1419248535 105.3280
0256 1419251464 105.8644
0257 1419254394 107.5964
0258 1419257324 105.8214
0259 1419260253 105.4154
0260 1419263183 105.6782
0261 1419266113 106.3731
0262 1419269042 107.9704
0263 1419271972 107.4714
0264 1419274902 106.3846
0265 1419277832 106.1895
0266 1419280761 106.4814
0267 1419283691 106.6873
0268 1419286621 106.4423
0269 1419289550 107.2403
0270 1419292480 107.0761
0271 1419295410 107.0580
0272 1419298339 107.3686
0273 1419301269 108.5255
0274 1419304199 107.4969
0275 1419307128 107.8719
0276 1419310058 107.6206
0277 1419312988 106.7528
0278 1419315917 108.0051
0279 1419318847 107.5810
0280 1419321777 107.1600
0281 1419324707 107.9697
0282 1419327636 108.3735
0283 1419330566 108.0340
0284 1419333496 107.7689
0285 1419336425 108.0160
0286 1419339355 107.9321
0287 1419342285 109.8038
0288 1419345214 108.8575
0289 1419348144 107.7848
0290 1419351074 108.4765
0291 1419354003 107.6524
0292 1419356933 108.5149
0293 1419359863 109.1363
0294 1419362792 107.0028
0295 1419365722 108.1720
0296 1419368652 109.6407
0297 1419371582 109.7237
0298 1419374511 110.4717
0299 1419377441 109.0966
0300 1419380371 109.1163
0301 1419383300 108.9395
0302 1419386230 109.9560
0303 1419389160 108.4661
0304 1419392089 110.1140
0305 1419395019 109.6911
0306 1419397949 109.0487
0307 1419400878 110.6389
0308 1419403808 109.5750
0309 1419406738 110.2272
0310 1419409667 109.0405
0311 1419412597 109.6322
0312 1419415527 107.9464
0313 1419418457 109.1825
0314 1419421386 110.0018
0315 1419424316 112.0733
0316 1419427246 110.3772
0317 1419430175 112.6955
0318 1419433105 110.7966
0319 1419436035 110.1394
0320 1419438964 111.7315
0321 1419441894 111.6776
0322 1419444824 112.2597
0323 1419447753 109.5327
0324 1419450683 110.7800
0325 1419453613 111.3335
0326 1419456542 110.7299
0327 1419459472 113.0496
0328 1419462402 111.3723
0329 1419465332 110.2177
0330 1419468261 111.6432
0331 1419471191 112.8832
0332 1419474121 113.4623
0333 1419477050 113.9828
0334 1419479980 113.1614
0335 1419482910 112.7393
0336 1419485839 114.7144
0337 1419488769 113.7161
0338 1419491699 113.4776
0339 1419494628 112.9296
0340 1419497558 113.2694
0341 1419500488 114.2657
0342 1419503417 114.5019
0343 1419506347 113.8254
0344 1419509277 114.2935
0345 1419512207 114.1565
0346 1419515136 114.1528
0347 1419518066 113.4024
0348 1419520996 115.1943
0349 1419523925 114.2891
0350 1419526855 115.2665
0351 1419529785 115.3366
0352 1419532714 117.0474
0353 1419535644 116.9201
0354 1419538574 116.4066
0355 1419541503 116.0382
0356 1419544433 115.9293
0357 1419547363 116.4744
0358 1419550292 117.3941
0359 1419553222 116.8175
0360 1419556152 116.4281
0361 1419559082 117.4391
0362 1419562011 118.6028
0363 1419564941 116.2296
0364 1419567871 117.6814
0365 1419570800 118.6593
0366 1419573730 118.0912
0367 1419576660 117.5880
0368 1419579589 117.8924
0369 1419582519 118.8497
0370 1419585449 120.0453
0371 1419588378 120.2650
0372 1419591308 118.7063
0373 1419594238 120.2102
0374 1419597167 119.6271
0375 1419600097 120.5463
0376 1419603027 121.7640
0377 1419605957 119.2800
0378 1419608886 122.1512
0379 1419611816 119.8632
0380 1419614746 122.1661
0381 1419617675 120.8371
0382 1419620605 122.0999
0383 1419623535 123.1236
0384 1419626464 123.4611
0385 1419629394 123.4267
0386 1419632324 122.8967
0387 1419635253 122.9188
0388 1419638183 121.5346
0389 1419641113 122.5642
0390 1419644042 123.6684
0391 1419646972 124.0935
0392 1419649902 123.8556
0393 1419652832 125.8076
0394 1419655761 127.3837
0395 1419658691 128.4590
0396 1419661621 126.2462
0397 1419664550 126.0100
0398 1419667480 126.3363
0399 1419670410 126.7139
0400 1419673339 126.8700
0401 1419676269 126.7254
0402 1419679199 127.5869
0403 1419682128 128.5263
0404 1419685058 129.1754
0405 1419687988 127.7680
0406 1419690917 129.0407
0407 1419693847 126.5244
0408 1419696777 127.6563
0409 1419699707 129.4775
0410 1419702636 129.4095
0411 1419705566 128.7557
0412 1419708496 127.9602
0413 1419711425 127.5848
0414 1419714355 127.9584
0415 1419717285 129.9914
0416 1419720214 131.4002
0417 1419723144 129.7058
0418 1419726074 130.4256
0419 1419729003 131.0583
0420 1419731933 130.8133
0421 1419734863 131.4051
0422 1419737792 131.0412
0423 1419740722 132.5784
0424 1419743652 132.9740
0425 1419746582 133.1949
0426 1419749511 134.6768
0427 1419752441 133.0727
0428 1419755371 131.5567
0429 1419758300 132.0602
0430 1419761230 134.0863
0431 1419764160 134.7093
0432 1419767089 136.1959
0433 1419770019 135.4743
0434 1419772949 134.2433
0435 1419775878 135.8830
0436 1419778808 136.7925
0437 1419781738 136.2660
0438 1419784667 136.0993
0439 1419787597 135.7951
0440 1419790527 136.0060
0441 1419793457 138.1035
0442 1419796386 141.0168
0443 1419799316 138.3303
0444 1419802246 137.1061
0445 1419805175 137.4769
0446 1419808105 137.6536
0447 1419811035 140.5006
0448 1419813964 140.9045
0449 1419816894 139.1980
0450 1419819824 139.5944
0451 1419822753 138.4843
0452 1419825683 140.4562
0453 1419828613 142.5460
0454 1419831542 140.4624
0455 1419834472 141.2881
0456 1419837402 140.9747
0457 1419840332 140.6253
0458 1419843261 140.3703
0459 1419846191 141.6114
0460 1419849121 141.0564
0461 1419852050 143.5634
0462 1419854980 142.4847
0463 1419857910 143.1112
0464 1419860839 142.9428
0465 1419863769 143.9385
0466 1419866699 144.0841
0467 1419869628 143.6773
0468 1419872558 143.0222
0469 1419875488 145.4846
0470 1419878417 144.4076
0471 1419881347 144.3281
0472 1419884277 143.4511
0473 1419887207 145.3840
0474 1419890136 143.0269
0475 1419893066 145.0485
0476 1419895996 146.6277
0477 1419898925 145.4058
0478 1419901855 147.6017
0479 1419904785 145.3573
0480 1419907714 146.0723
0481 1419910644 143.8207
0482 1419913574 146.4272
0483 1419916503 148.4370
0484 1419919433 144.7285
0485 1419922363 148.0591
0486 1419925292 148.2018
0487 1419928222 147.0213
0488 1419931152 148.1508
0489 1419934082 149.8567
0490 1419937011 149.9398
0491 1419939941 149.8462
0492 1419942871 149.8968
0493 1419945800 149.1621
0494 1419948730 152.7001
0495 1419951660 149.7196
0496 1419954589 149.3829
0497 1419957519 152.1626
0498 1419960449 151.3248
0499 1419963378 150.1276
0500 1419966308 152.8830
0501 1419969238 154.7837
0502 1419972167 155.3140
0503 1419975097 153.7511
0504 1419978027 154.1863
0505 1419980957 153.0370
0506 1419983886 155.6837
0507 1419986816 158.8842
0508 1419989746 158.9995
0509 1419992675 164.7485
0510 1419995605 171.0106
0511 1419998535 193.7875
0512 1420001464 245.8961
0513 1420004394 191.3382
0514 1420007324 167.2768
0515 1420010253 162.9978
0516 1420013183 161.4184
0517 1420016113 158.4717
0518 1420019042 155.9002
0519 1420021972 155.6221
0520 1420024902 155.8584
0521 1420027832 156.2616
0522 1420030761 153.1897
0523 1420033691 156.2707
0524 1420036621 155.0850
0525 1420039550 153.8650
0526 1420042480 152.6507
0527 1420045410 154.5643
0528 1420048339 152.1171
0529 1420051269 153.1476
0530 1420054199 152.9231
0531 1420057128 151.4084
0532 1420060058 150.2816
0533 1420062988 150.5583
0534 1420065917 150.4002
0535 1420068847 149.2507
0536 1420071777 151.0116
0537 1420074707 152.3648
0538 1420077636 153.1269
0539 1420080566 151.4731
0540 1420083496 149.7406
0541 1420086425 152.0184
0542 1420089355 149.9710
0543 1420092285 150.7954
0544 1420095214 150.4558
0545 1420098144 150.4644
0546 1420101074 149.3417
0547 1420104003 150.4871
0548 1420106933 151.6004
0549 1420109863 149.6273
0550 1420112792 148.9322
0551 1420115722 149.3158
0552 1420118652 147.9338
0553 1420121582 148.5409
0554 1420124511 147.8680
0555 1420127441 151.0556
0556 1420130371 149.5132
0557 1420133300 149.1680
0558 1420136230 147.1418
0559 1420139160 148.1170
0560 1420142089 148.6835
0561 1420145019 147.7423
0562 1420147949 149.3067
0563 1420150878 148.5995
0564 1420153808 148.6991
0565 1420156738 148.9020
0566 1420159667 147.7130
0567 1420162597 146.0532
0568 1420165527 146.9983
0569 1420168457 147.8001
0570 1420171386 147.6179
0571 1420174316 149.1601
0572 1420177246 148.7185
0573 1420180175 147.1483
0574 1420183105 146.7800
0575 1420186035 146.7852
0576 1420188964 148.9001
0577 1420191894 148.6730
0578 1420194824 148.8952
0579 1420197753 149.6285
0580 1420200683 147.5138
0581 1420203613 146.9829
0582 1420206542 147.2640
0583 1420209472 146.4032
0584 1420212402 146.8721
0585 1420215332 147.3024
0586 1420218261 146.7578
0587 1420221191 145.9999
0588 1420224121 146.2756
0589 1420227050 148.6803
0590 1420229980 147.0289
0591 1420232910 149.1095
0592 1420235839 149.0393
0593 1420238769 147.4016
0594 1420241699 150.3569
0595 1420244628 149.3734
0596 1420247558 147.8588
0597 1420250488 147.8792
0598 1420253417 152.5364
0599 1420256347 148.6893
0600 1420259277 150.2370
0601 1420262207 148.8169
0602 1420265136 150.0729
0603 1420268066 148.5865
0604 1420270996 149.2725
0605 1420273925 150.9152
0606 1420276855 151.7844
0607 1420279785 151.6663
0608 1420282714 152.1575
0609 1420285644 153.4925
0610 1420288574 149.5273
0611 1420291503 153.6031
0612 1420294433 151.2914
0613 1420297363 152.0523
0614 1420300292 154.0855
0615 1420303222 149.8106
0616 1420306152 151.8489
0617 1420309082 152.2177
0618 1420312011 151.9690
0619 1420314941 152.5705
0620 1420317871 152.4169
0621 1420320800 154.1598
0622 1420323730 152.4035
0623 1420326660 151.2320
0624 1420329589 151.3237
0625 1420332519 151.7945
0626 1420335449 150.1533
0627 1420338378 153.1620
0628 1420341308 151.6078
0629 1420344238 150.7044
0630 1420347167 151.7605
0631 1420350097 151.5549
0632 1420353027 150.0253
0633 1420355957 152.9126
0634 1420358886 149.8970
0635 1420361816 149.5109
0636 1420364746 149.0716
0637 1420367675 148.4063
0638 1420370605 150.9591
0639 1420373535 147.4601
0640 1420376464 149.7996
0641 1420379394 146.4215
0642 1420382324 145.5134
0643 1420385253 147.1416
0644 1420388183 146.5590
0645 1420391113 148.5816
0646 1420394042 147.6701
0647 1420396972 148.0006
0648 1420399902 148.6594
0649 1420402832 147.6597
0650 1420405761 146.5847
0651 1420408691 146.3624
0652 1420411621 145.4628
0653 1420414550 145.7216
0654 1420417480 146.1150
0655 1420420410 144.1147
0656 1420423339 142.5249
0657 1420426269 145.7133
0658 1420429199 143.5633
0659 1420432128 144.0218
0660 1420435058 142.9849
0661 1420437988 142.0329
0662 1420440917 141.4775
0663 1420443847 141.2477
0664 1420446777 142.3356
0665 1420449707 140.1533
0666 1420452636 139.6003
0667 1420455566 138.2253
0668 1420458496 140.4439
0669 1420461425 138.0919
0670 1420464355 138.9007
0671 1420467285 137.7150
0672 1420470214 136.8840
0673 1420473144 137.0832
0674 1420476074 137.1562
0675 1420479003 137.3088
0676 1420481933 136.3032
0677 1420484863 136.0912
0678 1420487792 137.0246
0679 1420490722 136.3066
0680 1420493652 135.5444
0681 1420496582 136.2394
0682 1420499511 134.1622
0683 1420502441 134.0354
0684 1420505371 132.7041
0685 1420508300 133.9702
0686 1420511230 134.7314
0687 1420514160 131.4984
0688 1420517089 131.9393
0689 1420520019 131.7398
0690 1420522949 132.4535
0691 1420525878 131.1874
0692 1420528808 131.2296
0693 1420531738 130.8299
0694 1420534667 131.0186
0695 1420537597 129.6827
0696 1420540527 131.1871
0697 1420543457 129.9445
0698 1420546386 129.5425
0699 1420549316 131.3123
0700 1420552246 129.1544
0701 1420555175 130.8932
0702 1420558105 131.4799
0703 1420561035 129.0047
0704 1420563964 130.4377
0705 1420566894 130.1969
0706 1420569824 129.3625
0707 1420572753 127.8973
0708 1420575683 127.2202
0709 1420578613 128.1540
0710 1420581542 127.4742
0711 1420584472 127.7282
0712 1420587402 127.2671
0713 1420590332 127.5560
0714 1420593261 127.5021
0715 1420596191 125.4821
0716 1420599121 125.7957
0717 1420602050 125.5868
0718 1420604980 126.7064
0719 1420607910 127.9202
0720 1420610839 127.0611
0721 1420613769 126.0531
0722 1420616699 126.3664
0723 1420619628 126.1647
0724 1420622558 125.5676
0725 1420625488 127.0993
0726 1420628417 127.3434
0727 1420631347 127.5858
0728 1420634277 123.8519
0729 1420637207 126.4138
0730 1420640136 125.9315
0731 1420643066 124.7778
0732 1420645996 124.9826
0733 1420648925 124.5658
0734 1420651855 124.6719
0735 1420654785 125.3493
0736 1420657714 124.5491
0737 1420660644 124.6661
0738 1420663574 124.4847
0739 1420666503 124.5662
0740 1420669433 125.4618
0741 1420672363 124.3908
0742 1420675292 125.5444
0743 1420678222 125.4451
0744 1420681152 124.0030
0745 1420684082 124.9657
0746 1420687011 122.1220
0747 1420689941 123.5509
0748 1420692871 124.1601
0749 1420695800 123.0149
0750 1420698730 124.4854
0751 1420701660 124.7499
0752 1420704589 124.4608
0753 1420707519 122.7430
0754 1420710449 123.0137
0755 1420713378 123.1448
0756 1420716308 123.2177
0757 1420719238 123.6810
0758 1420722167 121.8482
0759 1420725097 122.1671
0760 1420728027 123.1906
0761 1420730957 124.1645
0762 1420733886 124.0009
0763 1420736816 122.6431
0764 1420739746 122.3235
0765 1420742675 121.4524
0766 1420745605 122.1807
0767 1420748535 121.5511
0768 1420751464 122.4902
0769 1420754394 123.1888
0770 1420757324 122.4480
0771 1420760253 122.9580
0772 1420763183 120.6591
0773 1420766113 121.1443
0774 1420769042 121.4405
0775 1420771972 121.8853
0776 1420774902 122.1995
0777 1420777832 123.5425
0778 1420780761 122.6750
0779 1420783691 121.4887
0780 1420786621 121.3300
0781 1420789550 121.5106
0782 1420792480 121.2212
0783 1420795410 122.7291
0784 1420798339 122.2651
0785 1420801269 128.6060
0786 1420804199 122.4317
0787 1420807128 119.5829
0788 1420810058 119.1558
0789 1420812988 118.6816
0790 1420815917 119.7693
0791 1420818847 118.4116
0792 1420821777 120.0889
0793 1420824707 120.4531
0794 1420827636 118.0561
0795 1420830566 117.7882
0796 1420833496 119.8971
0797 1420836425 120.4108
0798 1420839355 119.3640
0799 1420842285 119.4150
0800 1420845214 118.7908
0801 1420848144 117.9671
0802 1420851074 117.3363
0803 1420854003 117.9025
0804 1420856933 117.0135
0805 1420859863 118.6321
0806 1420862792 117.4014
0807 1420865722 116.6307
0808 1420868652 116.7171
0809 1420871582 116.2908
0810 1420874511 116.3736
0811 1420877441 114.7456
0812 1420880371 116.6156
0813 1420883300 116.1246
0814 1420886230 114.8869
0815 1420889160 116.9949
0816 1420892089 115.6551
0817 1420895019 114.2924
0818 1420897949 114.9150
0819 1420900878 113.1602
0820 1420903808 113.6839
0821 1420906738 112.3948
0822 1420909667 112.7500
0823 1420912597 111.9196
0824 1420915527 111.5859
0825 1420918457 112.3667
0826 1420921386 111.0145
0827 1420924316 111.5012
0828 1420927246 110.3485
0829 1420930175 112.4449
0830 1420933105 110.2297
0831 1420936035 111.2175
0832 1420938964 110.0709
0833 1420941894 110.3794
0834 1420944824 108.8007
0835 1420947753 109.0959
0836 1420950683 108.3903
0837 1420953613 107.0598
0838 1420956542 106.3760
0839 1420959472 107.0322
0840 1420962402 107.1896
0841 1420965332 105.4455
0842 1420968261 106.4119
0843 1420971191 104.8204
0844 1420974121 103.6748
0845 1420977050 103.5953
0846 1420979980 104.1988
0847 1420982910 104.0781
0848 1420985839 104.1658
0849 1420988769 103.2398
0850 1420991699 102.7163
0851 1420994628 100.5150
0852 1420997558 100.0632
0853 1421000488 100.5015
0854 1421003417 99.4819
0855 1421006347 100.4459
0856 1421009277 98.7623
0857 1421012207 98.8623
0858 1421015136 98.8306
0859 1421018066 98.1553
0860 1421020996 97.2050
0861 1421023925 97.2874
0862 1421026855 95.6411
0863 1421029785 95.2193
0864 1421032714 95.8865
0865 1421035644 95.7871
0866 1421038574 94.8597
0867 1421041503 92.9340
0868 1421044433 93.2205
0869 1421047363 93.6403
0870 1421050292 92.3207
0871 1421053222 90.7339
0872 1421056152 91.3349
0873 1421059082 89.4577
0874 1421062011 89.7452
0875 1421064941 88.1031
0876 1421067871 87.3339
0877 1421070800 87.4245
0878 1421073730 87.1336
0879 1421076660 86.1822
0880 1421079589 85.0480
0881 1421082519 84.7227
0882 1421085449 84.5837
0883 1421088378 83.3380
0884 1421091308 83.3979
0885 1421094238 82.2098
0886 1421097167 81.5572
0887 1421100097 80.7944
0888 1421103027 80.2631
0889 1421105957 79.7538
0890 1421108886 79.6574
0891 1421111816 79.7933
0892 1421114746 78.2574
0893 1421117675 76.0352
0894 1421120605 76.4631
0895 1421123535 75.6510
0896 1421126464 75.2680
0897 1421129394 75.1766
0898 1421132324 74.5649
0899 1421135253 74.1303
0900 1421138183 72.5701
0901 1421141113 71.3982
0902 1421144042 71.0699
0903 1421146972 70.1876
0904 1421149902 70.6214
0905 1421152832 69.4898
0906 1421155761 68.4890
0907 1421158691 67.1465
0908 1421161621 67.0686
0909 1421164550 66.1293
0910 1421167480 65.7514
0911 1421170410 65.4901
0912 1421173339 63.8263
0913 1421176269 62.9458
0914 1421179199 62.2761
0915 1421182128 62.0497
0916 1421185058 61.0665
0917 1421187988 61.3512
0918 1421190917 59.4872
0919 1421193847 59.2510
0920 1421196777 58.4463
0921 1421199707 57.5117
0922 1421202636 57.4823
0923 1421205566 56.0135
0924 1421208496 56.1409
0925 1421211425 55.2797
0926 1421214355 54.5639
0927 1421217285 54.1588
0928 1421220214 53.5524
0929 1421223144 52.8537
0930 1421226074 52.1838
0931 1421229003 51.6701
0932 1421231933 50.5488
0933 1421234863 49.8712
0934 1421237792 49.3510
0935 1421240722 48.1048
0936 1421243652 48.5139
0937 1421246582 47.3855
0938 1421249511 46.8467
0939 1421252441 46.6235
0940 1421255371 45.4956
0941 1421258300 45.3778
0942 1421261230 44.4731
0943 1421264160 43.7804
0944 1421267089 42.8336
0945 1421270019 42.0310
0946 1421272949 42.0578
0947 1421275878 41.4969
0948 1421278808 41.1996
0949 1421281738 40.2382
0950 1421284667 39.4271
0951 1421287597 38.2863
0952 1421290527 38.2783
0953 1421293457 37.7971
0954 1421296386 36.9521
0955 1421299316 36.6389
0956 1421302246 35.9706
0957 1421305175 35.3493
0958 1421308105 34.8728
0959 1421311035 34.6229
0960 1421313964 33.5493
0961 1421316894 33.9017
0962 1421319824 32.8065
0963 1421322753 32.7674
0964 1421325683 31.7743
0965 1421328613 31.2608
0966 1421331542 30.6277
0967 1421334472 30.1634
0968 1421337402 29.4984
0969 1421340332 29.2266
0970 1421343261 28.6929
0971 1421346191 28.6071
0972 1421349121 27.7334
0973 1421352050 27.3400
0974 1421354980 26.9313
0975 1421357910 26.7197
0976 1421360839 26.5377
0977 1421363769 25.7382
0978 1421366699 25.5620
0979 1421369628 24.9104
0980 1421372558 23.9394
0981 1421375488 24.0999
0982 1421378417 23.8333
0983 1421381347 23.4680
0984 1421384277 22.9647
0985 1421387207 22.8617
0986 1421390136 22.5882
0987 1421393066 22.0056
0988 1421395996 21.7879
0989 1421398925 21.3743
0990 1421401855 21.1766
0991 1421404785 20.5761
0992 1421407714 20.4218
0993 1421410644 20.2260
0994 1421413574 19.8388
0995 1421416503 19.1488
0996 1421419433 19.2812
0997 1421422363 18.9981
0998 1421425292 18.8334
0999 1421428222 18.6271
1000 1421431152 18.2671
1001 1421434082 18.2148
1002 1421437011 17.9427
1003 1421439941 17.6755
1004 1421442871 17.3991
1005 1421445800 17.2911
1006 1421448730 17.0708
1007 1421451660 16.7103
1008 1421454589 16.6608
1009 1421457519 16.7215
1010 1421460449 16.3551
1011 1421463378 16.2941
1012 1421466308 16.1430
1013 1421469238 16.1272
1014 1421472167 15.7055
1015 1421475097 15.8201
1016 1421478027 15.7272
1017 1421480957 15.7722
1018 1421483886 15.4763
1019 1421486816 15.5762
1020 1421489746 15.2618
1021 1421492675 15.1694
1022 1421495605 15.1551
1023 1421498535 15.2196
